 #    i     x              ref(x)   imf(x)    k   th(k)    reF(k)    imF(k)    reF-1(x)   imF-1(x)
      0  -20.000       400.0000       0.000000        0.000       133.3333       133.3336       0.000000       400.0000     -0.2865784E-30
      1  -19.961       398.4390       0.000000       0.1571      -81.05695       81.05720     -0.1370432E-15   398.4390      0.1873501E-14
      2  -19.922       396.8811       0.000000       0.3142       20.26424       20.26449     -0.1266348E-15   396.8811      0.6050715E-14
      3  -19.883       395.3262       0.000000       0.4712      -9.006327       9.006582      0.4362830E-15   395.3262     -0.1545986E-13
      4  -19.844       393.7744       0.000000       0.6283       5.066059       5.066314      0.2398255E-15   393.7744     -0.7244205E-14
      5  -19.805       392.2256       0.000000       0.7854      -3.242278       3.242532      0.4219715E-15   392.2256     -0.8881784E-14
      6  -19.766       390.6799       0.000000       0.9425       2.251582       2.251836      0.1474515E-16   390.6799     -0.5745404E-14
      7  -19.727       389.1373       0.000000        1.100      -1.654223       1.654478     -0.9367507E-16   389.1373      0.6522560E-14
      8  -19.688       387.5977       0.000000        1.257       1.266515       1.266769     -0.1214306E-16   387.5977      0.2386980E-14
      9  -19.648       386.0611       0.000000        1.414      -1.000703       1.000957      0.3484626E-15   386.0611      0.1026956E-14
     10  -19.609       384.5276       0.000000        1.571      0.8105695      0.8108238      0.1971080E-15   384.5276     -0.8548717E-14
     11  -19.570       382.9971       0.000000        1.728     -0.6698921      0.6701465     -0.6722053E-16   382.9971      0.2164935E-14
     12  -19.531       381.4697       0.000000        1.885      0.5628955      0.5631498      0.6418477E-16   381.4697      0.2678413E-14
     13  -19.492       379.9454       0.000000        2.042     -0.4796269      0.4798813     -0.3496552E-15   379.9454      0.1685457E-13
     14  -19.453       378.4241       0.000000        2.199      0.4135559      0.4138103      0.1343326E-15   378.4241     -0.2235712E-13
     15  -19.414       376.9058       0.000000        2.356     -0.3602531      0.3605075     -0.1856290E-14   376.9058      0.2989796E-14
     16  -19.375       375.3906       0.000000        2.513      0.3166287      0.3168831     -0.3035766E-17   375.3906      0.4440892E-14
     17  -19.336       373.8785       0.000000        2.670     -0.2804739      0.2807283     -0.1703770E-14   373.8785      0.5111363E-14
     18  -19.297       372.3694       0.000000        2.827      0.2501758      0.2504302      0.5334275E-16   372.3694      0.6189493E-14
     19  -19.258       370.8633       0.000000        2.985     -0.2245345      0.2247890     -0.3395721E-15   370.8633     -0.1405126E-13
     20  -19.219       369.3604       0.000000        3.142      0.2026424      0.2028969      0.7979728E-16   369.3604     -0.2912948E-13
     21  -19.180       367.8604       0.000000        3.299     -0.1838026      0.1840571     -0.3816392E-16   367.8604      0.1085243E-13
     22  -19.141       366.3635       0.000000        3.456      0.1674730      0.1677276      0.8847090E-16   366.3635      0.1276756E-13
     23  -19.102       364.8697       0.000000        3.613     -0.1532267      0.1534813      0.4883247E-15   364.8697     -0.1443290E-13
     24  -19.062       363.3789       0.000000        3.770      0.1407239      0.1409785     -0.1734723E-16   363.3789      0.2414735E-14
     25  -19.023       361.8912       0.000000        3.927     -0.1296911      0.1299457      0.1960238E-15   361.8912      0.1360023E-14
     26  -18.984       360.4065       0.000000        4.084      0.1199067      0.1201614      0.1110223E-15   360.4065      0.5606626E-14
     27  -18.945       358.9249       0.000000        4.241     -0.1111892      0.1114439      0.1249001E-15   358.9249     -0.1859624E-14
     28  -18.906       357.4463       0.000000        4.398      0.1033890      0.1036437      0.3469447E-16   357.4463      0.9686696E-14
     29  -18.867       355.9708       0.000000        4.555     -0.9638163E-01  0.9663634E-01 -0.1804112E-15   355.9708     -0.3799738E-13
     30  -18.828       354.4983       0.000000        4.712      0.9006327E-01  0.9031802E-01  0.5551115E-16   354.4983      0.3996803E-14
     31  -18.789       353.0289       0.000000        4.869     -0.8434646E-01  0.8460123E-01  0.2109424E-14   353.0289      0.7133183E-14
     32  -18.750       351.5625       0.000000        5.027      0.7915717E-01  0.7941198E-01   0.000000       351.5625      0.3678955E-15
     33  -18.711       350.0992       0.000000        5.184     -0.7443246E-01  0.7468729E-01 -0.8388570E-15   350.0992      0.1285437E-13
     34  -18.672       348.6389       0.000000        5.341      0.7011847E-01  0.7037333E-01 -0.4588555E-15   348.6389      0.7733464E-14
     35  -18.633       347.1817       0.000000        5.498     -0.6616894E-01  0.6642384E-01 -0.1604535E-15   347.1817     -0.2191656E-13
     36  -18.594       345.7275       0.000000        5.655      0.6254394E-01  0.6279888E-01  0.8467829E-16   345.7275     -0.3317060E-14
     37  -18.555       344.2764       0.000000        5.812     -0.5920887E-01  0.5946384E-01  0.9256533E-16   344.2764     -0.7365569E-14
     38  -18.516       342.8284       0.000000        5.969      0.5613362E-01  0.5638863E-01 -0.2325718E-16   342.8284     -0.2432149E-14
     39  -18.477       341.3834       0.000000        6.126     -0.5329188E-01  0.5354692E-01  0.3180238E-15   341.3834      0.3805782E-14
     40  -18.438       339.9414       0.000000        6.283      0.5066059E-01  0.5091567E-01 -0.1251510E-16   339.9414      0.1620926E-13
     41  -18.398       338.5025       0.000000        6.440     -0.4821948E-01  0.4847460E-01  0.3667279E-15   338.5025      0.6838213E-14
     42  -18.359       337.0667       0.000000        6.597      0.4595065E-01  0.4620581E-01  0.3706056E-16   337.0667     -0.4367967E-14
     43  -18.320       335.6339       0.000000        6.754     -0.4383826E-01  0.4409346E-01 -0.1328721E-15   335.6339     -0.1363506E-13
     44  -18.281       334.2041       0.000000        6.912      0.4186826E-01  0.4212350E-01  0.3014082E-16   334.2041      0.3209037E-14
     45  -18.242       332.7774       0.000000        7.069     -0.4002812E-01  0.4028341E-01 -0.8356017E-16   332.7774      0.5866902E-14
     46  -18.203       331.3538       0.000000        7.226      0.3830669E-01  0.3856202E-01  0.2878662E-16   331.3538     -0.2641977E-13
     47  -18.164       329.9332       0.000000        7.383     -0.3669396E-01  0.3694933E-01 -0.5559918E-15   329.9332      0.5968182E-14
     48  -18.125       328.5156       0.000000        7.540      0.3518097E-01  0.3543639E-01  0.6424422E-17   328.5156      0.2220446E-15
     49  -18.086       327.1011       0.000000        7.697     -0.3375966E-01  0.3401513E-01 -0.5326924E-15   327.1011      0.1032961E-14
     50  -18.047       325.6897       0.000000        7.854      0.3242278E-01  0.3267829E-01  0.5122960E-16   325.6897      0.5467848E-14
     51  -18.008       324.2813       0.000000        8.011     -0.3116376E-01  0.3141933E-01  0.4466913E-16   324.2813     -0.1666709E-13
     52  -17.969       322.8760       0.000000        8.168      0.2997668E-01  0.3023229E-01  0.3331264E-16   322.8760     -0.2952513E-13
     53  -17.930       321.4737       0.000000        8.325     -0.2885616E-01  0.2911182E-01 -0.1764906E-16   321.4737      0.1283830E-14
     54  -17.891       320.0745       0.000000        8.482      0.2779731E-01  0.2805302E-01 -0.4147178E-16   320.0745      0.5735063E-14
     55  -17.852       318.6783       0.000000        8.639     -0.2679568E-01  0.2705145E-01 -0.5544751E-16   318.6783     -0.6938894E-14
     56  -17.812       317.2852       0.000000        8.796      0.2584724E-01  0.2610306E-01  0.2309351E-16   317.2852      0.1240347E-13
     57  -17.773       315.8951       0.000000        8.954     -0.2494828E-01  0.2520415E-01 -0.5810275E-16   315.8951     -0.1027990E-13
     58  -17.734       314.5081       0.000000        9.111      0.2409541E-01  0.2435134E-01 -0.3035766E-16   314.5081      0.4184019E-14
     59  -17.695       313.1241       0.000000        9.268     -0.2328553E-01  0.2354152E-01  0.6591949E-16   313.1241     -0.1005459E-13
     60  -17.656       311.7432       0.000000        9.425      0.2251582E-01  0.2277186E-01 -0.3198816E-16   311.7432      0.5877109E-14
     61  -17.617       310.3653       0.000000        9.582     -0.2178365E-01  0.2203975E-01  0.3371869E-16   310.3653     -0.4136995E-13
     62  -17.578       308.9905       0.000000        9.739      0.2108661E-01  0.2134278E-01 -0.2130625E-15   308.9905     -0.1387779E-16
     63  -17.539       307.6187       0.000000        9.896     -0.2042251E-01  0.2067874E-01  0.1521027E-14   307.6187      0.1418310E-13
     64  -17.500       306.2500       0.000000        10.05      0.1978929E-01  0.2004558E-01   0.000000       306.2500     -0.3857488E-14
     65  -17.461       304.8843       0.000000        10.21     -0.1918508E-01  0.1944142E-01 -0.3990923E-15   304.8843      0.1211585E-13
     66  -17.422       303.5217       0.000000        10.37      0.1860811E-01  0.1886453E-01 -0.1885193E-15   303.5217      0.9894594E-14
     67  -17.383       302.1622       0.000000        10.52     -0.1805679E-01  0.1831327E-01  0.1506831E-16   302.1622     -0.2102512E-13
     68  -17.344       300.8057       0.000000        10.68      0.1752962E-01  0.1778616E-01 -0.6430386E-16   300.8057      0.7493469E-14
     69  -17.305       299.4522       0.000000        10.84     -0.1702519E-01  0.1728180E-01 -0.6364805E-16   299.4522     -0.2195520E-13
     70  -17.266       298.1018       0.000000        11.00      0.1654223E-01  0.1679891E-01 -0.1247790E-16   298.1018     -0.6119836E-14
     71  -17.227       296.7545       0.000000        11.15     -0.1607954E-01  0.1633628E-01 -0.2215114E-15   296.7545      0.3749686E-15
     72  -17.188       295.4102       0.000000        11.31      0.1563599E-01  0.1589280E-01 -0.2868458E-16   295.4102      0.2377292E-13
     73  -17.148       294.0689       0.000000        11.47     -0.1521054E-01  0.1546742E-01 -0.1055441E-15   294.0689     -0.3372571E-14
     74  -17.109       292.7307       0.000000        11.62      0.1480222E-01  0.1505917E-01 -0.5155486E-16   292.7307      0.2150789E-14
     75  -17.070       291.3956       0.000000        11.78     -0.1441012E-01  0.1466715E-01  0.1649900E-15   291.3956     -0.1766669E-13
     76  -17.031       290.0635       0.000000        11.94      0.1403340E-01  0.1429051E-01  0.1961129E-16   290.0635      0.9117707E-14
     77  -16.992       288.7344       0.000000        12.10     -0.1367127E-01  0.1392844E-01  0.1867092E-15   288.7344     -0.1644786E-14
     78  -16.953       287.4084       0.000000        12.25      0.1332297E-01  0.1358022E-01  0.9507167E-16   287.4084     -0.1125489E-13
     79  -16.914       286.0855       0.000000        12.41     -0.1298781E-01  0.1324514E-01 -0.5484832E-15   286.0855      0.8680226E-14
     80  -16.875       284.7656       0.000000        12.57      0.1266515E-01  0.1292255E-01  0.1525005E-16   284.7656      0.1568244E-13
     81  -16.836       283.4488       0.000000        12.72     -0.1235436E-01  0.1261184E-01 -0.3823780E-15   283.4488      0.6652602E-14
     82  -16.797       282.1350       0.000000        12.88      0.1205487E-01  0.1231243E-01  0.7414128E-16   282.1350      0.2402272E-13
     83  -16.758       280.8243       0.000000        13.04     -0.1176614E-01  0.1202379E-01 -0.2685973E-15   280.8243     -0.1775636E-13
     84  -16.719       279.5166       0.000000        13.19      0.1148766E-01  0.1174539E-01  0.2974325E-16   279.5166     -0.2607744E-13
     85  -16.680       278.2120       0.000000        13.35     -0.1121895E-01  0.1147676E-01 -0.2216301E-15   278.2120     -0.5274096E-14
     86  -16.641       276.9104       0.000000        13.51      0.1095957E-01  0.1121746E-01 -0.4048323E-16   276.9104      0.1160076E-13
     87  -16.602       275.6119       0.000000        13.67     -0.1070907E-01  0.1096705E-01  0.1336225E-15   275.6119     -0.2220446E-15
     88  -16.562       274.3164       0.000000        13.82      0.1046706E-01  0.1072513E-01  0.2044464E-16   274.3164      0.6563925E-14
     89  -16.523       273.0240       0.000000        13.98     -0.1023317E-01  0.1049132E-01  0.7196111E-16   273.0240     -0.3233256E-14
     90  -16.484       271.7346       0.000000        14.14      0.1000703E-01  0.1026527E-01  0.3718109E-17   271.7346      0.1226796E-13
     91  -16.445       270.4483       0.000000        14.29     -0.9788304E-02  0.1004663E-01  0.2621048E-15   270.4483     -0.1977558E-13
     92  -16.406       269.1650       0.000000        14.45      0.9576671E-02  0.9835088E-02  0.1198320E-15   269.1650      0.1236430E-13
     93  -16.367       267.8848       0.000000        14.61     -0.9371829E-02  0.9630337E-02  0.1789465E-15   267.8848     -0.4374440E-13
     94  -16.328       266.6077       0.000000        14.77      0.9173489E-02  0.9432089E-02 -0.4488178E-16   266.6077      0.9186559E-14
     95  -16.289       265.3336       0.000000        14.92     -0.8981379E-02  0.9240072E-02  0.2132045E-15   265.3336      0.3140570E-13
     96  -16.250       264.0625       0.000000        15.08      0.8795242E-02  0.9054028E-02   0.000000       264.0625      0.1256074E-14
     97  -16.211       262.7945       0.000000        15.24     -0.8614831E-02  0.8873713E-02 -0.1117070E-14   262.7945      0.3160599E-14
     98  -16.172       261.5295       0.000000        15.39      0.8439915E-02  0.8698893E-02  0.2168842E-16   261.5295      0.5436825E-14
     99  -16.133       260.2676       0.000000        15.55     -0.8270273E-02  0.8529348E-02 -0.1464841E-15   260.2676     -0.3612742E-13
    100  -16.094       259.0088       0.000000        15.71      0.8105695E-02  0.8364868E-02 -0.1723672E-16   259.0088      0.6874676E-14
    101  -16.055       257.7530       0.000000        15.87     -0.7945980E-02  0.8205253E-02  0.4772833E-16   257.7530     -0.2924677E-14
    102  -16.016       256.5002       0.000000        16.02      0.7790941E-02  0.8050313E-02  0.5134012E-16   256.5002     -0.8703275E-14
    103  -15.977       255.2505       0.000000        16.18     -0.7640395E-02  0.7899868E-02  0.6510867E-16   255.2505     -0.8130750E-14
    104  -15.938       254.0039       0.000000        16.34      0.7494170E-02  0.7753746E-02  0.2146082E-16   254.0039      0.2819966E-13
    105  -15.898       252.7603       0.000000        16.49     -0.7352104E-02  0.7611783E-02  0.4020741E-15   252.7603      0.9502748E-14
    106  -15.859       251.5198       0.000000        16.65      0.7214039E-02  0.7473823E-02 -0.6661507E-17   251.5198      0.7292547E-16
    107  -15.820       250.2823       0.000000        16.81     -0.7079828E-02  0.7339717E-02  0.3627819E-16   250.2823     -0.1802208E-13
    108  -15.781       249.0479       0.000000        16.96      0.6949327E-02  0.7209323E-02  0.2072951E-16   249.0479      0.1369901E-13
    109  -15.742       247.8165       0.000000        17.12     -0.6822401E-02  0.7082505E-02 -0.7459311E-16   247.8165     -0.3328901E-14
    110  -15.703       246.5881       0.000000        17.28      0.6698921E-02  0.6959134E-02 -0.6290926E-16   246.5881     -0.1551727E-13
    111  -15.664       245.3629       0.000000        17.44     -0.6578764E-02  0.6839086E-02 -0.4011508E-15   245.3629      0.2215512E-13
    112  -15.625       244.1406       0.000000        17.59      0.6461810E-02  0.6722243E-02  0.1188583E-16   244.1406     -0.3774758E-14
    113  -15.586       242.9214       0.000000        17.75     -0.6347948E-02  0.6608493E-02 -0.5981314E-15   242.9214      0.9600726E-14
    114  -15.547       241.7053       0.000000        17.91      0.6237069E-02  0.6497727E-02  0.7967819E-16   241.7053      0.2101097E-13
    115  -15.508       240.4922       0.000000        18.06     -0.6129070E-02  0.6389841E-02  0.1320383E-16   240.4922     -0.1747907E-13
    116  -15.469       239.2822       0.000000        18.22      0.6023852E-02  0.6284738E-02  0.1152017E-16   239.2822     -0.8208846E-14
    117  -15.430       238.0753       0.000000        18.38     -0.5921320E-02  0.6182323E-02 -0.3332121E-16   238.0753     -0.1481114E-13
    118  -15.391       236.8713       0.000000        18.54      0.5821384E-02  0.6082504E-02  0.8340487E-16   236.8713      0.1807759E-13
    119  -15.352       235.6705       0.000000        18.69     -0.5723956E-02  0.5985195E-02 -0.1034679E-16   235.6705      0.1791105E-13
    120  -15.312       234.4727       0.000000        18.85      0.5628955E-02  0.5890313E-02 -0.4119968E-17   234.4727      0.2924404E-13
    121  -15.273       233.2779       0.000000        19.01     -0.5536299E-02  0.5797777E-02 -0.1224575E-15   233.2779     -0.2759938E-13
    122  -15.234       232.0862       0.000000        19.16      0.5445912E-02  0.5707512E-02 -0.7312629E-16   232.0862      0.1273274E-13
    123  -15.195       230.8975       0.000000        19.32     -0.5357720E-02  0.5619443E-02 -0.1264264E-15   230.8975     -0.2186105E-13
    124  -15.156       229.7119       0.000000        19.48      0.5271654E-02  0.5533501E-02 -0.1236032E-15   229.7119      0.9854863E-14
    125  -15.117       228.5294       0.000000        19.63     -0.5187645E-02  0.5449616E-02 -0.3281047E-15   228.5294     -0.2440749E-13
    126  -15.078       227.3499       0.000000        19.79      0.5105628E-02  0.5367726E-02 -0.5531108E-16   227.3499      0.1171258E-13
    127  -15.039       226.1734       0.000000        19.95     -0.5025541E-02  0.5287766E-02  0.1757641E-14   226.1734      0.2546928E-13
    128  -15.000       225.0000       0.000000        20.11      0.4947323E-02  0.5209676E-02   0.000000       225.0000     -0.2943164E-14
    129  -14.961       223.8297       0.000000        20.26     -0.4870918E-02  0.5133400E-02  0.1030061E-14   223.8297      0.6869505E-14
    130  -14.922       222.6624       0.000000        20.42      0.4796269E-02  0.5058882E-02 -0.1289772E-16   222.6624      0.6606900E-14
    131  -14.883       221.4981       0.000000        20.58     -0.4723323E-02  0.4986067E-02  0.3641418E-15   221.4981     -0.3750100E-13
    132  -14.844       220.3369       0.000000        20.73      0.4652029E-02  0.4914906E-02  0.6696585E-16   220.3369      0.2401179E-13
    133  -14.805       219.1788       0.000000        20.89     -0.4582336E-02  0.4845347E-02 -0.3104474E-16   219.1788     -0.1326824E-13
    134  -14.766       218.0237       0.000000        21.05      0.4514198E-02  0.4777344E-02 -0.1689021E-16   218.0237     -0.6690167E-14
    135  -14.727       216.8716       0.000000        21.21     -0.4447569E-02  0.4710851E-02 -0.3433493E-16   216.8716     -0.1579507E-13
    136  -14.688       215.7227       0.000000        21.36      0.4382404E-02  0.4645823E-02  0.2039577E-16   215.7227      0.2381643E-13
    137  -14.648       214.5767       0.000000        21.52     -0.4318661E-02  0.4582218E-02 -0.6967431E-16   214.5767     -0.3191891E-14
    138  -14.609       213.4338       0.000000        21.68      0.4256298E-02  0.4519995E-02 -0.6689363E-17   213.4338      0.6384856E-14
    139  -14.570       212.2940       0.000000        21.83     -0.4195277E-02  0.4459114E-02 -0.1095690E-15   212.2940     -0.2681403E-13
    140  -14.531       211.1572       0.000000        21.99      0.4135559E-02  0.4399537E-02  0.2596901E-16   211.1572      0.1050656E-13
    141  -14.492       210.0235       0.000000        22.15     -0.4077106E-02  0.4341227E-02 -0.1378249E-16   210.0235     -0.3573530E-14
    142  -14.453       208.8928       0.000000        22.31      0.4019884E-02  0.4284149E-02 -0.1871311E-16   208.8928     -0.1153352E-13
    143  -14.414       207.7652       0.000000        22.46     -0.3963859E-02  0.4228269E-02 -0.8419640E-15   207.7652      0.7874777E-14
    144  -14.375       206.6406       0.000000        22.62      0.3908996E-02  0.4173553E-02 -0.4494652E-17   206.6406      0.7105427E-14
    145  -14.336       205.5191       0.000000        22.78     -0.3855265E-02  0.4119969E-02 -0.8583966E-15   205.5191      0.1044043E-13
    146  -14.297       204.4006       0.000000        22.93      0.3802634E-02  0.4067486E-02 -0.1032336E-16   204.4006      0.4016661E-13
    147  -14.258       203.2852       0.000000        23.09     -0.3751073E-02  0.4016075E-02 -0.1344651E-15   203.2852     -0.1816123E-13
    148  -14.219       202.1729       0.000000        23.25      0.3700555E-02  0.3965707E-02 -0.1239337E-16   202.1729     -0.7369105E-14
    149  -14.180       201.0635       0.000000        23.40     -0.3651049E-02  0.3916354E-02 -0.5588976E-16   201.0635     -0.1429519E-13
    150  -14.141       199.9573       0.000000        23.56      0.3602531E-02  0.3867989E-02 -0.5651237E-16   199.9573      0.1982070E-13
    151  -14.102       198.8541       0.000000        23.72     -0.3554973E-02  0.3820586E-02 -0.1382929E-17   198.8541      0.1426744E-13
    152  -14.062       197.7539       0.000000        23.88      0.3508351E-02  0.3774119E-02  0.5327453E-17   197.7539     -0.1137979E-14
    153  -14.023       196.6568       0.000000        24.03     -0.3462640E-02  0.3728565E-02 -0.9967620E-16   196.6568     -0.1046493E-13
    154  -13.984       195.5627       0.000000        24.19      0.3417817E-02  0.3683899E-02 -0.2750901E-16   195.5627      0.2775558E-15
    155  -13.945       194.4717       0.000000        24.35     -0.3373858E-02  0.3640100E-02  0.3046862E-15   194.4717     -0.3022904E-13
    156  -13.906       193.3838       0.000000        24.50      0.3330742E-02  0.3597144E-02 -0.2614414E-16   193.3838      0.7300790E-14
    157  -13.867       192.2989       0.000000        24.66     -0.3288448E-02  0.3555010E-02 -0.1872903E-15   192.2989     -0.1962427E-13
    158  -13.828       191.2170       0.000000        24.82      0.3246953E-02  0.3513679E-02  0.1794250E-16   191.2170      0.4275432E-14
    159  -13.789       190.1382       0.000000        24.98     -0.3206240E-02  0.3473129E-02 -0.1339002E-14   190.1382      0.2367765E-13
    160  -13.750       189.0625       0.000000        25.13      0.3166287E-02  0.3433341E-02   0.000000       189.0625     -0.8361501E-14
    161  -13.711       187.9898       0.000000        25.29     -0.3127076E-02  0.3394296E-02  0.6562773E-15   187.9898      0.2048008E-13
    162  -13.672       186.9202       0.000000        25.45      0.3088590E-02  0.3355977E-02 -0.1248789E-15   186.9202      0.2924677E-14
    163  -13.633       185.8536       0.000000        25.60     -0.3050809E-02  0.3318365E-02 -0.4263167E-15   185.8536     -0.2776592E-13
    164  -13.594       184.7900       0.000000        25.76      0.3013718E-02  0.3281443E-02  0.9833504E-16   184.7900      0.4167527E-13
    165  -13.555       183.7296       0.000000        25.92     -0.2977298E-02  0.3245195E-02 -0.7370021E-16   183.7296      0.1003010E-13
    166  -13.516       182.6721       0.000000        26.08      0.2941535E-02  0.3209604E-02  0.8512035E-17   182.6721      0.4152995E-14
    167  -13.477       181.6177       0.000000        26.23     -0.2906413E-02  0.3174655E-02 -0.5166496E-15   181.6177     -0.1907135E-13
    168  -13.438       180.5664       0.000000        26.39      0.2871916E-02  0.3140332E-02 -0.1393943E-16   180.5664      0.3574918E-13
    169  -13.398       179.5181       0.000000        26.55     -0.2838029E-02  0.3106622E-02 -0.2854127E-15   179.5181      0.2585786E-13
    170  -13.359       178.4729       0.000000        26.70      0.2804739E-02  0.3073508E-02 -0.3359112E-16   178.4729      0.2812674E-13
    171  -13.320       177.4307       0.000000        26.86     -0.2772031E-02  0.3040979E-02 -0.6900632E-16   177.4307     -0.2000470E-13
    172  -13.281       176.3916       0.000000        27.02      0.2739891E-02  0.3009019E-02  0.2732189E-16   176.3916      0.1585904E-13
    173  -13.242       175.3555       0.000000        27.17     -0.2708308E-02  0.2977616E-02 -0.6237345E-16   175.3555     -0.1848181E-13
    174  -13.203       174.3225       0.000000        27.33      0.2677267E-02  0.2946758E-02  0.2498981E-16   174.3225     -0.1030493E-14
    175  -13.164       173.2925       0.000000        27.49     -0.2646757E-02  0.2916431E-02  0.8817403E-15   173.2925     -0.1994138E-13
    176  -13.125       172.2656       0.000000        27.65      0.2616766E-02  0.2886624E-02 -0.1054439E-16   172.2656     -0.2109424E-13
    177  -13.086       171.2418       0.000000        27.80     -0.2587282E-02  0.2857325E-02  0.4809760E-15   171.2418      0.9394462E-14
    178  -13.047       170.2209       0.000000        27.96      0.2558293E-02  0.2828523E-02  0.9990818E-16   170.2209      0.1434963E-13
    179  -13.008       169.2032       0.000000        28.12     -0.2529788E-02  0.2800207E-02  0.1309716E-15   169.2032     -0.1207381E-13
    180  -12.969       168.1885       0.000000        28.27      0.2501758E-02  0.2772366E-02 -0.6641262E-17   168.1885     -0.1990755E-13
    181  -12.930       167.1768       0.000000        28.43     -0.2474190E-02  0.2744990E-02  0.1761594E-15   167.1768     -0.1721553E-13
    182  -12.891       166.1682       0.000000        28.59      0.2447076E-02  0.2718067E-02 -0.1924354E-16   166.1682      0.1868984E-13
    183  -12.852       165.1627       0.000000        28.75     -0.2420405E-02  0.2691590E-02  0.4091920E-16   165.1627      0.1793010E-13
    184  -12.812       164.1602       0.000000        28.90      0.2394168E-02  0.2665547E-02 -0.1214306E-16   164.1602      0.2639882E-13
    185  -12.773       163.1607       0.000000        29.06     -0.2368355E-02  0.2639930E-02  0.1321538E-15   163.1607     -0.4351040E-13
    186  -12.734       162.1643       0.000000        29.22      0.2342957E-02  0.2614730E-02 -0.5030698E-16   162.1643     -0.2705461E-13
    187  -12.695       161.1710       0.000000        29.37     -0.2317966E-02  0.2589937E-02 -0.7242471E-16   161.1710     -0.2885873E-13
    188  -12.656       160.1807       0.000000        29.53      0.2293372E-02  0.2565543E-02  0.2363980E-16   160.1807      0.1371833E-13
    189  -12.617       159.1934       0.000000        29.69     -0.2269168E-02  0.2541540E-02 -0.2571728E-15   159.1934     -0.1502938E-13
    190  -12.578       158.2092       0.000000        29.85      0.2245345E-02  0.2517919E-02  0.5425515E-15   158.2092     -0.1790235E-14
    191  -12.539       157.2281       0.000000        30.00     -0.2221895E-02  0.2494673E-02  0.2308050E-14   157.2281      0.1418310E-13
    192  -12.500       156.2500       0.000000        30.16      0.2198810E-02  0.2471793E-02   0.000000       156.2500     -0.1096292E-13
    193  -12.461       155.2750       0.000000        30.32     -0.2176084E-02  0.2449273E-02  0.3277518E-15   155.2750      0.5010418E-14
    194  -12.422       154.3030       0.000000        30.47      0.2153708E-02  0.2427105E-02  0.1514396E-15   154.3030      0.9894594E-14
    195  -12.383       153.3340       0.000000        30.63     -0.2131675E-02  0.2405281E-02  0.5085118E-16   153.3340     -0.3493120E-13
    196  -12.344       152.3682       0.000000        30.79      0.2109979E-02  0.2383795E-02  0.6408702E-16   152.3682      0.3946789E-13
    197  -12.305       151.4053       0.000000        30.94     -0.2088612E-02  0.2362640E-02  0.1729524E-15   151.4053     -0.9436896E-15
    198  -12.266       150.4456       0.000000        31.10      0.2067568E-02  0.2341809E-02 -0.5344579E-16   150.4456     -0.9672550E-14
    199  -12.227       149.4888       0.000000        31.26     -0.2046841E-02  0.2321296E-02 -0.2957345E-15   149.4888     -0.2449403E-13
    200  -12.188       148.5352       0.000000        31.42      0.2026424E-02  0.2301094E-02 -0.1696243E-16   148.5352      0.1666749E-13
    201  -12.148       147.5845       0.000000        31.57     -0.2006310E-02  0.2281198E-02 -0.3594053E-15   147.5845     -0.2852288E-14
    202  -12.109       146.6370       0.000000        31.73      0.1986495E-02  0.2261601E-02  0.1047591E-16   146.6370      0.2649950E-13
    203  -12.070       145.6924       0.000000        31.89     -0.1966972E-02  0.2242298E-02  0.1107412E-15   145.6924     -0.3638156E-13
    204  -12.031       144.7510       0.000000        32.04      0.1947735E-02  0.2223282E-02  0.1557421E-16   144.7510      0.2012279E-14
    205  -11.992       143.8126       0.000000        32.20     -0.1928779E-02  0.2204548E-02  0.1579118E-15   143.8126     -0.1637592E-13
    206  -11.953       142.8772       0.000000        32.36      0.1910099E-02  0.2186092E-02 -0.8393493E-17   142.8772     -0.1303124E-13
    207  -11.914       141.9449       0.000000        32.52     -0.1891688E-02  0.2167906E-02  0.4441540E-15   141.9449     -0.7827269E-14
    208  -11.875       141.0156       0.000000        32.67      0.1873543E-02  0.2149987E-02 -0.5817488E-17   141.0156     -0.9186559E-14
    209  -11.836       140.0894       0.000000        32.83     -0.1855657E-02  0.2132329E-02  0.1400624E-15   140.0894      0.8428959E-14
    210  -11.797       139.1663       0.000000        32.99      0.1838026E-02  0.2114928E-02  0.2202307E-16   139.1663      0.4157078E-13
    211  -11.758       138.2462       0.000000        33.14     -0.1820645E-02  0.2097778E-02 -0.6163375E-16   138.2462     -0.1242729E-13
    212  -11.719       137.3291       0.000000        33.30      0.1803510E-02  0.2080875E-02 -0.9615387E-17   137.3291      0.1594558E-13
    213  -11.680       136.4151       0.000000        33.46     -0.1786615E-02  0.2064214E-02 -0.6865544E-16   136.4151     -0.1446065E-13
    214  -11.641       135.5042       0.000000        33.62      0.1769957E-02  0.2047790E-02 -0.4957604E-17   135.5042      0.7743269E-14
    215  -11.602       134.5963       0.000000        33.77     -0.1753530E-02  0.2031600E-02 -0.1339013E-15   134.5963      0.1775703E-13
    216  -11.562       133.6914       0.000000        33.93      0.1737332E-02  0.2015639E-02 -0.3257494E-16   133.6914      0.9300801E-15
    217  -11.523       132.7896       0.000000        34.09     -0.1721356E-02  0.1999903E-02 -0.2154843E-15   132.7896     -0.1672408E-14
    218  -11.484       131.8909       0.000000        34.24      0.1705600E-02  0.1984388E-02 -0.7196549E-16   131.8909     -0.1511318E-13
    219  -11.445       130.9952       0.000000        34.40     -0.1690060E-02  0.1969089E-02   0.000000       130.9952     -0.2887287E-13
    220  -11.406       130.1025       0.000000        34.56      0.1674730E-02  0.1954003E-02  0.3211792E-16   130.1025      0.1616896E-14
    221  -11.367       129.2130       0.000000        34.71     -0.1659609E-02  0.1939127E-02 -0.6542636E-16   129.2130     -0.1357248E-13
    222  -11.328       128.3264       0.000000        34.87      0.1644691E-02  0.1924456E-02  0.1351042E-15   128.3264      0.1421085E-13
    223  -11.289       127.4429       0.000000        35.03     -0.1629973E-02  0.1909986E-02 -0.1172740E-14   127.4429      0.1719485E-13
    224  -11.250       126.5625       0.000000        35.19      0.1615453E-02  0.1895714E-02   0.000000       126.5625     -0.1280239E-13
    225  -11.211       125.6851       0.000000        35.34     -0.1601125E-02  0.1881638E-02  0.1063835E-14   125.6851     -0.1245872E-13
    226  -11.172       124.8108       0.000000        35.50      0.1586987E-02  0.1867752E-02 -0.1726094E-15   124.8108      0.1055039E-13
    227  -11.133       123.9395       0.000000        35.66     -0.1573036E-02  0.1854054E-02  0.1092960E-15   123.9395     -0.1888413E-13
    228  -11.094       123.0713       0.000000        35.81      0.1559267E-02  0.1840541E-02 -0.1219748E-15   123.0713      0.1105543E-13
    229  -11.055       122.2061       0.000000        35.97     -0.1545679E-02  0.1827210E-02  0.1262861E-15   122.2061      0.1535917E-13
    230  -11.016       121.3440       0.000000        36.13      0.1532267E-02  0.1814057E-02  0.2520456E-16   121.3440     -0.1444487E-13
    231  -10.977       120.4849       0.000000        36.29     -0.1519030E-02  0.1801079E-02  0.2963643E-15   120.4849     -0.1335207E-13
    232  -10.938       119.6289       0.000000        36.44      0.1505963E-02  0.1788273E-02 -0.1945181E-17   119.6289      0.2819966E-13
    233  -10.898       118.7759       0.000000        36.60     -0.1493064E-02  0.1775637E-02 -0.2390442E-16   118.7759      0.2941057E-13
    234  -10.859       117.9260       0.000000        36.76      0.1480330E-02  0.1763167E-02  0.9383136E-16   117.9260      0.2368585E-13
    235  -10.820       117.0792       0.000000        36.91     -0.1467758E-02  0.1750861E-02  0.4915694E-16   117.0792     -0.3693396E-13
    236  -10.781       116.2354       0.000000        37.07      0.1455346E-02  0.1738716E-02  0.5725026E-17   116.2354      0.1558312E-13
    237  -10.742       115.3946       0.000000        37.23     -0.1443090E-02  0.1726730E-02 -0.9107298E-17   115.3946     -0.1461508E-13
    238  -10.703       114.5569       0.000000        37.38      0.1430989E-02  0.1714899E-02 -0.4366781E-16   114.5569      0.1833770E-14
    239  -10.664       113.7222       0.000000        37.54     -0.1419039E-02  0.1703221E-02 -0.3210905E-15   113.7222     -0.9927056E-14
    240  -10.625       112.8906       0.000000        37.70      0.1407239E-02  0.1691694E-02 -0.7185460E-18   112.8906     -0.4196643E-13
    241  -10.586       112.0621       0.000000        37.86     -0.1395585E-02  0.1680315E-02  0.2387184E-15   112.0621      0.4379410E-14
    242  -10.547       111.2366       0.000000        38.01      0.1384075E-02  0.1669082E-02 -0.1398793E-17   111.2366      0.1390554E-13
    243  -10.508       110.4141       0.000000        38.17     -0.1372707E-02  0.1657992E-02 -0.2199612E-15   110.4141     -0.1303818E-13
    244  -10.469       109.5947       0.000000        38.33      0.1361478E-02  0.1647043E-02 -0.9677028E-17   109.5947      0.3427133E-13
    245  -10.430       108.7784       0.000000        38.48     -0.1350386E-02  0.1636233E-02 -0.2177800E-15   108.7784      0.3320328E-14
    246  -10.391       107.9651       0.000000        38.64      0.1339430E-02  0.1625559E-02 -0.1268814E-15   107.9651      0.4143037E-13
    247  -10.352       107.1548       0.000000        38.80     -0.1328606E-02  0.1615020E-02  0.1004440E-15   107.1548      0.3149387E-13
    248  -10.312       106.3477       0.000000        38.96      0.1317913E-02  0.1604614E-02  0.6938894E-17   106.3477      0.2798796E-13
    249  -10.273       105.5435       0.000000        39.11     -0.1307349E-02  0.1594337E-02  0.9893030E-16   105.5435     -0.2885546E-13
    250  -10.234       104.7424       0.000000        39.27      0.1296911E-02  0.1584188E-02 -0.2098505E-15   104.7424      0.1346853E-13
    251  -10.195       103.9444       0.000000        39.43     -0.1286598E-02  0.1574166E-02  0.2519770E-15   103.9444     -0.4192126E-13
    252  -10.156       103.1494       0.000000        39.58      0.1276407E-02  0.1564268E-02  0.1088395E-17   103.1494      0.1706804E-13
    253  -10.117       102.3575       0.000000        39.74     -0.1266337E-02  0.1554492E-02  0.1661249E-15   102.3575      0.1874535E-13
    254  -10.078       101.5686       0.000000        39.90      0.1256385E-02  0.1544836E-02  0.2125204E-15   101.5686      0.3272409E-13
    255  -10.039       100.7828       0.000000        40.06     -0.1246551E-02  0.1535299E-02  0.2394589E-15   100.7828      0.3131863E-13
    256  -10.000       100.0000       0.000000        40.21      0.1236831E-02  0.1525879E-02   0.000000       100.0000     -0.1421085E-13
    257  -9.9609       99.22028       0.000000        40.37     -0.1227224E-02  0.1516573E-02 -0.3504141E-14   99.22028     -0.2359224E-15
    258  -9.9219       98.44360       0.000000        40.53      0.1217730E-02  0.1507381E-02 -0.1006140E-15   98.44360      0.1482148E-13
    259  -9.8828       97.66998       0.000000        40.68     -0.1208344E-02  0.1498300E-02 -0.1942890E-15   97.66998     -0.1657008E-13
    260  -9.8438       96.89941       0.000000        40.84      0.1199067E-02  0.1489329E-02  0.1040834E-16   96.89941      0.4271583E-13
    261  -9.8047       96.13190       0.000000        41.00     -0.1189897E-02  0.1480466E-02 -0.1674008E-15   96.13190     -0.1132427E-13
    262  -9.7656       95.36743       0.000000        41.15      0.1180831E-02  0.1471709E-02 -0.1535230E-15   95.36743     -0.1240674E-13
    263  -9.7266       94.60602       0.000000        41.31     -0.1171868E-02  0.1463058E-02 -0.9497611E-16   94.60602     -0.2944867E-13
    264  -9.6875       93.84766       0.000000        41.47      0.1163007E-02  0.1454510E-02  0.1734723E-17   93.84766      0.2814415E-13
    265  -9.6484       93.09235       0.000000        41.63     -0.1154246E-02  0.1446063E-02 -0.2038300E-15   93.09235     -0.2081668E-14
    266  -9.6094       92.34009       0.000000        41.78      0.1145584E-02  0.1437717E-02  0.6288373E-16   92.34009      0.2919887E-13
    267  -9.5703       91.59088       0.000000        41.94     -0.1137019E-02  0.1429470E-02 -0.6375109E-16   91.59088     -0.3336220E-13
    268  -9.5312       90.84473       0.000000        42.10      0.1128550E-02  0.1421320E-02 -0.1973248E-16   90.84473      0.1511291E-13
    269  -9.4922       90.10162       0.000000        42.25     -0.1120174E-02  0.1413266E-02 -0.6722053E-16   90.10162     -0.2666617E-13
    270  -9.4531       89.36157       0.000000        42.41      0.1111892E-02  0.1405307E-02  0.7708677E-16   89.36157      0.1672273E-13
    271  -9.4141       88.62457       0.000000        42.57     -0.1103702E-02  0.1397442E-02 -0.8928676E-15   88.62457     -0.1477377E-13
    272  -9.3750       87.89062       0.000000        42.73      0.1095601E-02  0.1389668E-02 -0.3035766E-16   87.89062     -0.8881784E-15
    273  -9.3359       87.15973       0.000000        42.88     -0.1087589E-02  0.1381984E-02 -0.4129184E-15   87.15973     -0.1994065E-14
    274  -9.2969       86.43188       0.000000        43.04      0.1079665E-02  0.1374391E-02  0.3599551E-16   86.43188      0.4260481E-13
    275  -9.2578       85.70709       0.000000        43.20     -0.1071827E-02  0.1366885E-02  0.3729655E-16   85.70709     -0.1405126E-13
    276  -9.2188       84.98535       0.000000        43.35      0.1064075E-02  0.1359466E-02 -0.3903128E-17   84.98535      0.2327305E-13
    277  -9.1797       84.26666       0.000000        43.51     -0.1056406E-02  0.1352132E-02  0.1144917E-15   84.26666     -0.1046385E-13
    278  -9.1406       83.55103       0.000000        43.67      0.1048819E-02  0.1344884E-02  0.1249001E-15   83.55103      0.3408385E-13
    279  -9.1016       82.83844       0.000000        43.83     -0.1041314E-02  0.1337718E-02  0.2081668E-15   82.83844      0.2819966E-13
    280  -9.0625       82.12891       0.000000        43.98      0.1033890E-02  0.1330634E-02  0.3469447E-17   82.12891      0.2414735E-14
    281  -9.0234       81.42242       0.000000        44.14     -0.1026544E-02  0.1323632E-02 -0.2289835E-15   81.42242     -0.1640355E-13
    282  -8.9844       80.71899       0.000000        44.30      0.1019277E-02  0.1316709E-02  0.9714451E-16   80.71899     -0.1498801E-14
    283  -8.9453       80.01862       0.000000        44.45     -0.1012086E-02  0.1309865E-02  0.8673617E-16   80.01862     -0.4271583E-13
    284  -8.9062       79.32129       0.000000        44.61      0.1004971E-02  0.1303099E-02 -0.6591949E-16   79.32129      0.1856848E-13
    285  -8.8672       78.62701       0.000000        44.77     -0.9979310E-03  0.1296409E-02  0.3469447E-16   78.62701      0.6411538E-14
    286  -8.8281       77.93579       0.000000        44.92      0.9909647E-03  0.1289795E-02 -0.1249001E-15   77.93579      0.1998401E-13
    287  -8.7891       77.24762       0.000000        45.08     -0.9840710E-03  0.1283256E-02 -0.4996004E-15   77.24762      0.2844947E-13
    288  -8.7500       76.56250       0.000000        45.24      0.9772491E-03  0.1276790E-02   0.000000       76.56250     -0.1561932E-13
    289  -8.7109       75.88043       0.000000        45.40     -0.9704978E-03  0.1270396E-02 -0.2755055E-15   75.88043      0.9301654E-14
    290  -8.6719       75.20142       0.000000        45.55      0.9638163E-03  0.1264075E-02  0.1777880E-15   75.20142      0.1661525E-13
    291  -8.6328       74.52545       0.000000        45.71     -0.9572035E-03  0.1257824E-02 -0.4032394E-16   74.52545     -0.1481114E-13
    292  -8.5938       73.85254       0.000000        45.87      0.9506585E-03  0.1251642E-02 -0.6927842E-16   73.85254      0.5885543E-13
    293  -8.5547       73.18268       0.000000        46.02     -0.9441804E-03  0.1245530E-02 -0.8134070E-16   73.18268      0.1750343E-13
    294  -8.5156       72.51587       0.000000        46.18      0.9377684E-03  0.1239486E-02 -0.3583393E-16   72.51587     -0.1486665E-13
    295  -8.4766       71.85211       0.000000        46.34     -0.9314214E-03  0.1233508E-02 -0.7705952E-16   71.85211     -0.4770857E-13
    296  -8.4375       71.19141       0.000000        46.50      0.9251386E-03  0.1227597E-02 -0.4275167E-17   71.19141      0.2509104E-13
    297  -8.3984       70.53375       0.000000        46.65     -0.9189192E-03  0.1221751E-02  0.4406930E-16   70.53375      0.2815449E-13
    298  -8.3594       69.87915       0.000000        46.81      0.9127623E-03  0.1215970E-02 -0.3271756E-17   69.87915      0.3115917E-13
    299  -8.3203       69.22760       0.000000        46.97     -0.9066671E-03  0.1210252E-02 -0.9145560E-16   69.22760     -0.3139863E-13
    300  -8.2812       68.57910       0.000000        47.12      0.9006327E-03  0.1204597E-02 -0.1301043E-16   68.57910      0.1386718E-13
    301  -8.2422       67.93365       0.000000        47.28     -0.8946584E-03  0.1199005E-02 -0.2241116E-16   67.93365     -0.2610752E-13
    302  -8.2031       67.29126       0.000000        47.44      0.8887433E-03  0.1193473E-02 -0.2694138E-16   67.29126      0.2001938E-14
    303  -8.1641       66.65192       0.000000        47.60     -0.8828867E-03  0.1188002E-02 -0.2409226E-15   66.65192     -0.4376981E-13
    304  -8.1250       66.01562       0.000000        47.75      0.8770878E-03  0.1182591E-02 -0.1164993E-17   66.01562     -0.4596323E-13
    305  -8.0859       65.38239       0.000000        47.91     -0.8713458E-03  0.1177239E-02 -0.2082992E-15   65.38239     -0.6072467E-14
    306  -8.0469       64.75220       0.000000        48.07      0.8656601E-03  0.1171945E-02  0.6749263E-16   64.75220      0.1612599E-13
    307  -8.0078       64.12506       0.000000        48.22     -0.8600298E-03  0.1166708E-02  0.5009014E-16   64.12506     -0.1666709E-13
    308  -7.9688       63.50098       0.000000        48.38      0.8544542E-03  0.1161529E-02  0.8592826E-17   63.50098      0.9554723E-14
    309  -7.9297       62.87994       0.000000        48.54     -0.8489327E-03  0.1156405E-02  0.1061668E-15   62.87994     -0.5821598E-14
    310  -7.8906       62.26196       0.000000        48.69      0.8434646E-03  0.1151337E-02  0.1176891E-15   62.26196      0.3770949E-13
    311  -7.8516       61.64703       0.000000        48.85     -0.8380491E-03  0.1146324E-02  0.2021589E-15   61.64703     -0.3386180E-14
    312  -7.8125       61.03516       0.000000        49.01      0.8326856E-03  0.1141365E-02 -0.7155734E-17   61.03516      0.3016704E-13
    313  -7.7734       60.42633       0.000000        49.17     -0.8273734E-03  0.1136459E-02  0.6907416E-16   60.42633     -0.5646518E-13
    314  -7.7344       59.82056       0.000000        49.32      0.8221119E-03  0.1131606E-02  0.9692767E-16   59.82056     -0.1713226E-13
    315  -7.6953       59.21783       0.000000        49.48     -0.8169004E-03  0.1126805E-02 -0.1240327E-15   59.21783     -0.4558173E-13
    316  -7.6562       58.61816       0.000000        49.64      0.8117384E-03  0.1122056E-02 -0.2450716E-16   58.61816      0.1653525E-13
    317  -7.6172       58.02155       0.000000        49.79     -0.8066251E-03  0.1117358E-02 -0.1246832E-15   58.02155      0.8368038E-14
    318  -7.5781       57.42798       0.000000        49.95      0.8015599E-03  0.1112710E-02  0.9495934E-16   57.42798      0.3538836E-14
    319  -7.5391       56.83746       0.000000        50.11     -0.7965424E-03  0.1108112E-02  0.4909267E-15   56.83746      0.2839395E-13
    320  -7.5000       56.25000       0.000000        50.27      0.7915717E-03  0.1103563E-02   0.000000       56.25000     -0.1745879E-13
    321  -7.4609       55.66559       0.000000        50.42     -0.7866475E-03  0.1099063E-02  0.1629531E-15   55.66559     -0.5038174E-14
    322  -7.4219       55.08423       0.000000        50.58      0.7817691E-03  0.1094611E-02  0.2130223E-15   55.08423      0.1847160E-13
    323  -7.3828       54.50592       0.000000        50.74     -0.7769359E-03  0.1090206E-02 -0.2460929E-16   54.50592      0.1762747E-14
    324  -7.3438       53.93066       0.000000        50.89      0.7721474E-03  0.1085848E-02 -0.6168043E-16   53.93066      0.4596377E-13
    325  -7.3047       53.35846       0.000000        51.05     -0.7674030E-03  0.1081537E-02 -0.2829229E-16   53.35846     -0.2256475E-13
    326  -7.2656       52.78931       0.000000        51.21      0.7627023E-03  0.1077271E-02 -0.1035317E-15   52.78931     -0.1824956E-13
    327  -7.2266       52.22321       0.000000        51.37     -0.7580446E-03  0.1073051E-02  0.5237582E-16   52.22321     -0.3307104E-13
    328  -7.1875       51.66016       0.000000        51.52      0.7534294E-03  0.1068876E-02 -0.1338247E-16   51.66016      0.4006491E-13
    329  -7.1484       51.10016       0.000000        51.68     -0.7488562E-03  0.1064745E-02 -0.4917153E-16   51.10016      0.1651725E-14
    330  -7.1094       50.54321       0.000000        51.84      0.7443246E-03  0.1060657E-02 -0.4352967E-16   50.54321      0.3204408E-13
    331  -7.0703       49.98932       0.000000        51.99     -0.7398339E-03  0.1056613E-02  0.6030717E-16   49.98932     -0.2685325E-13
    332  -7.0312       49.43848       0.000000        52.15      0.7353838E-03  0.1052612E-02  0.2614852E-17   49.43848      0.1267042E-13
    333  -6.9922       48.89069       0.000000        52.31     -0.7309737E-03  0.1048654E-02  0.9529180E-16   48.89069     -0.3925305E-13
    334  -6.9531       48.34595       0.000000        52.46      0.7266032E-03  0.1044737E-02 -0.3663317E-16   48.34595      0.4203582E-13
    335  -6.9141       47.80426       0.000000        52.62     -0.7222717E-03  0.1040862E-02  0.1193018E-15   47.80426     -0.1913193E-13
    336  -6.8750       47.26562       0.000000        52.78      0.7179789E-03  0.1037028E-02  0.1196343E-16   47.26562      0.9186559E-14
    337  -6.8359       46.73004       0.000000        52.94     -0.7137242E-03  0.1033234E-02  0.5657525E-16   46.73004     -0.8420285E-14
    338  -6.7969       46.19751       0.000000        53.09      0.7095073E-03  0.1029480E-02 -0.4822885E-16   46.19751      0.4031471E-13
    339  -6.7578       45.66803       0.000000        53.25     -0.7053275E-03  0.1025766E-02  0.2443494E-16   45.66803     -0.1567523E-13
    340  -6.7188       45.14160       0.000000        53.41      0.7011847E-03  0.1022092E-02 -0.1391390E-16   45.14160      0.8230602E-14
    341  -6.6797       44.61823       0.000000        53.56     -0.6970782E-03  0.1018456E-02 -0.1211947E-15   44.61823     -0.9436359E-14
    342  -6.6406       44.09790       0.000000        53.72      0.6930077E-03  0.1014859E-02  0.3929061E-16   44.09790      0.2459251E-13
    343  -6.6016       43.58063       0.000000        53.88     -0.6889727E-03  0.1011299E-02  0.8950097E-17   43.58063      0.2819966E-13
    344  -6.5625       43.06641       0.000000        54.04      0.6849728E-03  0.1007778E-02 -0.1307207E-16   43.06641      0.4482794E-14
    345  -6.5234       42.55524       0.000000        54.19     -0.6810077E-03  0.1004293E-02 -0.6719062E-16   42.55524     -0.2957383E-13
    346  -6.4844       42.04712       0.000000        54.35      0.6770770E-03  0.1000846E-02 -0.1079099E-15   42.04712      0.1226796E-13
    347  -6.4453       41.54205       0.000000        54.51     -0.6731801E-03  0.9974345E-03  0.1381826E-15   41.54205     -0.3190530E-13
    348  -6.4062       41.04004       0.000000        54.66      0.6693168E-03  0.9940595E-03  0.2545112E-16   41.04004      0.3454262E-13
    349  -6.3672       40.54108       0.000000        54.82     -0.6654867E-03  0.9907201E-03  0.2932872E-16   40.54108      0.2192851E-13
    350  -6.3281       40.04517       0.000000        54.98      0.6616894E-03  0.9874162E-03 -0.1975458E-15   40.04517      0.1923515E-13
    351  -6.2891       39.55231       0.000000        55.13     -0.6579244E-03  0.9841472E-03 -0.1940339E-14   39.55231      0.1927598E-13
    352  -6.2500       39.06250       0.000000        55.29      0.6541915E-03  0.9809129E-03   0.000000       39.06250     -0.2006021E-13
    353  -6.2109       38.57574       0.000000        55.45     -0.6504903E-03  0.9777129E-03 -0.6470679E-15   38.57574     -0.2526111E-13
    354  -6.1719       38.09204       0.000000        55.61      0.6468204E-03  0.9745468E-03 -0.3040059E-15   38.09204      0.1964768E-13
    355  -6.1328       37.61139       0.000000        55.76     -0.6431815E-03  0.9714143E-03 -0.3285216E-15   37.61139     -0.6002814E-15
    356  -6.0938       37.13379       0.000000        55.92      0.6395732E-03  0.9683151E-03  0.1009413E-15   37.13379      0.2819096E-13
    357  -6.0547       36.65924       0.000000        56.08     -0.6359952E-03  0.9652489E-03 -0.1605469E-15   36.65924      0.1128618E-13
    358  -6.0156       36.18774       0.000000        56.23      0.6324471E-03  0.9622153E-03  0.5958005E-16   36.18774     -0.1580870E-13
    359  -5.9766       35.71930       0.000000        56.39     -0.6289286E-03  0.9592140E-03 -0.1974851E-15   35.71930     -0.2234160E-13
    360  -5.9375       35.25391       0.000000        56.55      0.6254394E-03  0.9562446E-03 -0.1041472E-16   35.25391      0.1398881E-13
    361  -5.8984       34.79156       0.000000        56.71     -0.6219792E-03  0.9533070E-03  0.3604748E-16   34.79156      0.3081903E-13
    362  -5.8594       34.33228       0.000000        56.86      0.6185476E-03  0.9504008E-03 -0.3094764E-16   34.33228      0.4270549E-13
    363  -5.8203       33.87604       0.000000        57.02     -0.6151443E-03  0.9475256E-03  0.3528652E-15   33.87604     -0.2512750E-13
    364  -5.7812       33.42285       0.000000        57.18      0.6117690E-03  0.9446812E-03  0.7068560E-17   33.42285      0.6593583E-14
    365  -5.7422       32.97272       0.000000        57.33     -0.6084214E-03  0.9418673E-03  0.2305014E-15   32.97272     -0.3175061E-13
    366  -5.7031       32.52563       0.000000        57.49      0.6051013E-03  0.9390836E-03  0.5602772E-16   32.52563      0.2000987E-13
    367  -5.6641       32.08160       0.000000        57.65     -0.6018082E-03  0.9363298E-03 -0.1745525E-15   32.08160      0.7944267E-14
    368  -5.6250       31.64062       0.000000        57.81      0.5985420E-03  0.9336057E-03  0.1589738E-16   31.64062     -0.1088019E-13
    369  -5.5859       31.20270       0.000000        57.96     -0.5953022E-03  0.9309110E-03 -0.3294661E-15   31.20270     -0.1171556E-13
    370  -5.5469       30.76782       0.000000        58.12      0.5920887E-03  0.9282453E-03  0.9421889E-17   30.76782      0.6800116E-14
    371  -5.5078       30.33600       0.000000        58.28     -0.5889012E-03  0.9256085E-03 -0.2048292E-15   30.33600      0.3837208E-14
    372  -5.4688       29.90723       0.000000        58.43      0.5857393E-03  0.9230002E-03  0.1553172E-16   29.90723      0.4152915E-13
    373  -5.4297       29.48151       0.000000        58.59     -0.5826028E-03  0.9204203E-03 -0.2885424E-15   29.48151     -0.1481114E-13
    374  -5.3906       29.05884       0.000000        58.75      0.5794915E-03  0.9178684E-03 -0.2425640E-16   29.05884      0.2518301E-13
    375  -5.3516       28.63922       0.000000        58.90     -0.5764050E-03  0.9153443E-03  0.3471147E-15   28.63922      0.3922734E-13
    376  -5.3125       28.22266       0.000000        59.06      0.5733430E-03  0.9128478E-03 -0.8890458E-17   28.22266      0.2213861E-13
    377  -5.2734       27.80914       0.000000        59.22     -0.5703055E-03  0.9103786E-03  0.3998027E-15   27.80914     -0.2049396E-13
    378  -5.2344       27.39868       0.000000        59.38      0.5672920E-03  0.9079365E-03  0.3201541E-17   27.39868      0.5627309E-14
    379  -5.1953       26.99127       0.000000        59.53     -0.5643023E-03  0.9055212E-03 -0.1348831E-15   26.99127     -0.2896648E-13
    380  -5.1562       26.58691       0.000000        59.69      0.5613362E-03  0.9031325E-03 -0.4662489E-16   26.58691      0.9854863E-14
    381  -5.1172       26.18561       0.000000        59.85     -0.5583934E-03  0.9007701E-03 -0.2895071E-15   26.18561      0.4664678E-13
    382  -5.0781       25.78735       0.000000        60.00      0.5554737E-03  0.8984340E-03 -0.1322894E-15   25.78735      0.1881801E-13
    383  -5.0391       25.39215       0.000000        60.16     -0.5525769E-03  0.8961237E-03 -0.2718812E-14   25.39215      0.1836385E-13
    384  -5.0000       25.00000       0.000000        60.32      0.5497026E-03  0.8938392E-03   0.000000       25.00000     -0.1715402E-13
    385  -4.9609       24.61090       0.000000        60.48     -0.5468507E-03  0.8915801E-03  0.1371065E-14   24.61090     -0.7341350E-14
    386  -4.9219       24.22485       0.000000        60.63      0.5440210E-03  0.8893463E-03  0.3371440E-16   24.22485      0.1371233E-13
    387  -4.8828       23.84186       0.000000        60.79     -0.5412131E-03  0.8871376E-03  0.3800881E-15   23.84186      0.1690422E-13
    388  -4.8438       23.46191       0.000000        60.95      0.5384270E-03  0.8849537E-03  0.7616561E-16   23.46191      0.3822265E-13
    389  -4.8047       23.08502       0.000000        61.10     -0.5356622E-03  0.8827945E-03  0.3363561E-15   23.08502     -0.6162811E-14
    390  -4.7656       22.71118       0.000000        61.26      0.5329188E-03  0.8806598E-03  0.1162115E-15   22.71118     -0.1379559E-13
    391  -4.7266       22.34039       0.000000        61.42     -0.5301963E-03  0.8785493E-03 -0.5087078E-16   22.34039     -0.2290050E-13
    392  -4.6875       21.97266       0.000000        61.58      0.5274947E-03  0.8764628E-03 -0.2039577E-16   21.97266      0.1671100E-13
    393  -4.6484       21.60797       0.000000        61.73     -0.5248137E-03  0.8744002E-03  0.5776905E-16   21.60797      0.3913536E-14
    394  -4.6094       21.24634       0.000000        61.89      0.5221530E-03  0.8723613E-03  0.8638451E-16   21.24634      0.3358747E-13
    395  -4.5703       20.88776       0.000000        62.05     -0.5195126E-03  0.8703459E-03 -0.3205739E-15   20.88776     -0.1260318E-13
    396  -4.5312       20.53223       0.000000        62.20      0.5168921E-03  0.8683538E-03 -0.1067967E-16   20.53223      0.1050656E-13
    397  -4.4922       20.17975       0.000000        62.36     -0.5142914E-03  0.8663848E-03 -0.3659345E-15   20.17975     -0.3163817E-13
    398  -4.4531       19.83032       0.000000        62.52      0.5117102E-03  0.8644387E-03  0.7650738E-16   19.83032      0.2363656E-13
    399  -4.4141       19.48395       0.000000        62.67     -0.5091485E-03  0.8625154E-03  0.1451604E-15   19.48395     -0.2140897E-13
    400  -4.3750       19.14062       0.000000        62.83      0.5066059E-03  0.8606147E-03  0.1025205E-17   19.14062     -0.7105427E-14
    401  -4.3359       18.80035       0.000000        62.99     -0.5040824E-03  0.8587365E-03 -0.9376798E-16   18.80035     -0.1590014E-13
    402  -4.2969       18.46313       0.000000        63.15      0.5015776E-03  0.8568804E-03  0.1897144E-16   18.46313      0.2509372E-13
    403  -4.2578       18.12897       0.000000        63.30     -0.4990915E-03  0.8550465E-03  0.1453155E-15   18.12897     -0.1451801E-15
    404  -4.2188       17.79785       0.000000        63.46      0.4966238E-03  0.8532345E-03  0.3745285E-17   17.79785      0.2693893E-13
    405  -4.1797       17.46979       0.000000        63.62     -0.4941743E-03  0.8514443E-03  0.1093087E-15   17.46979     -0.1221406E-13
    406  -4.1406       17.14478       0.000000        63.77      0.4917430E-03  0.8496757E-03 -0.1074208E-16   17.14478      0.2103980E-13
    407  -4.1016       16.82281       0.000000        63.93     -0.4893295E-03  0.8479285E-03  0.1431196E-15   16.82281      0.2725920E-13
    408  -4.0625       16.50391       0.000000        64.09      0.4869338E-03  0.8462026E-03  0.1633106E-16   16.50391     -0.6162274E-14
    409  -4.0234       16.18805       0.000000        64.25     -0.4845556E-03  0.8444979E-03  0.3049688E-15   16.18805     -0.1046493E-13
    410  -3.9844       15.87524       0.000000        64.40      0.4821948E-03  0.8428141E-03 -0.3003450E-16   15.87524      0.2775558E-15
    411  -3.9453       15.56549       0.000000        64.56     -0.4798512E-03  0.8411512E-03 -0.3273433E-16   15.56549     -0.3022904E-13
    412  -3.9062       15.25879       0.000000        64.72      0.4775247E-03  0.8395091E-03  0.9062654E-16   15.25879      0.9381921E-14
    413  -3.8672       14.95514       0.000000        64.87     -0.4752150E-03  0.8378874E-03 -0.1906576E-15   14.95514      0.2681350E-13
    414  -3.8281       14.65454       0.000000        65.03      0.4729220E-03  0.8362862E-03 -0.3218590E-15   14.65454      0.1138086E-13
    415  -3.7891       14.35699       0.000000        65.19     -0.4706456E-03  0.8347053E-03  0.2153100E-15   14.35699      0.1154793E-13
    416  -3.7500       14.06250       0.000000        65.35      0.4683856E-03  0.8331445E-03   0.000000       14.06250     -0.1546693E-13
    417  -3.7109       13.77106       0.000000        65.50     -0.4661419E-03  0.8316038E-03  0.5682192E-16   13.77106     -0.8362038E-15
    418  -3.6719       13.48267       0.000000        65.66      0.4639142E-03  0.8300829E-03 -0.3649213E-15   13.48267      0.2924677E-14
    419  -3.6328       13.19733       0.000000        65.82     -0.4617025E-03  0.8285818E-03 -0.8728666E-16   13.19733      0.1486665E-13
    420  -3.5938       12.91504       0.000000        65.97      0.4595065E-03  0.8271003E-03  0.3545131E-16   12.91504      0.3456984E-13
    421  -3.5547       12.63580       0.000000        66.13     -0.4573262E-03  0.8256383E-03  0.7526916E-16   12.63580      0.2924677E-14
    422  -3.5156       12.35962       0.000000        66.29      0.4551613E-03  0.8241957E-03  0.3420763E-16   12.35962     -0.1005786E-13
    423  -3.4766       12.08649       0.000000        66.44     -0.4530118E-03  0.8227723E-03 -0.7771834E-15   12.08649     -0.3328220E-13
    424  -3.4375       11.81641       0.000000        66.60      0.4508775E-03  0.8213680E-03 -0.1914360E-16   11.81641      0.1443290E-13
    425  -3.3984       11.54938       0.000000        66.76     -0.4487582E-03  0.8199828E-03 -0.4671250E-15   11.54938      0.1875243E-13
    426  -3.3594       11.28540       0.000000        66.92      0.4466538E-03  0.8186165E-03 -0.2220699E-16   11.28540      0.2102131E-13
    427  -3.3203       11.02448       0.000000        67.07     -0.4445642E-03  0.8172689E-03 -0.2405271E-15   11.02448     -0.5793842E-14
    428  -3.2812       10.76660       0.000000        67.23      0.4424892E-03  0.8159401E-03  0.9757820E-18   10.76660      0.1648189E-14
    429  -3.2422       10.51178       0.000000        67.39     -0.4404287E-03  0.8146298E-03 -0.3753826E-15   10.51178     -0.3269267E-13
    430  -3.2031       10.26001       0.000000        67.54      0.4383826E-03  0.8133379E-03 -0.5003698E-16   10.26001      0.2739122E-13
    431  -3.1641       10.01129       0.000000        67.70     -0.4363507E-03  0.8120644E-03  0.2054150E-15   10.01129     -0.1994138E-13
    432  -3.1250       9.765625       0.000000        67.86      0.4343329E-03  0.8108091E-03 -0.5123379E-17   9.765625     -0.2819966E-13
    433  -3.0859       9.523010       0.000000        68.02     -0.4323291E-03  0.8095720E-03  0.6739640E-15   9.523010     -0.8369106E-14
    434  -3.0469       9.283447       0.000000        68.17      0.4303391E-03  0.8083529E-03 -0.4667595E-16   9.283447      0.3691492E-14
    435  -3.0078       9.046936       0.000000        68.33     -0.4283628E-03  0.8071517E-03  0.2537033E-15   9.046936     -0.1415669E-14
    436  -2.9688       8.813477       0.000000        68.49      0.4264001E-03  0.8059684E-03 -0.2304454E-17   8.813477      0.1917230E-13
    437  -2.9297       8.583069       0.000000        68.64     -0.4244508E-03  0.8048028E-03  0.2470662E-15   8.583069     -0.1366282E-13
    438  -2.8906       8.355713       0.000000        68.80      0.4225149E-03  0.8036548E-03 -0.1273833E-16   8.355713      0.8031703E-14
    439  -2.8516       8.131409       0.000000        68.96     -0.4205922E-03  0.8025244E-03 -0.6612101E-15   8.131409      0.2148282E-13
    440  -2.8125       7.910156       0.000000        69.12      0.4186826E-03  0.8014115E-03  0.2732189E-16   7.910156      0.1218797E-13
    441  -2.7734       7.691956       0.000000        69.27     -0.4167859E-03  0.8003159E-03 -0.1017317E-14   7.691956     -0.3640497E-13
    442  -2.7344       7.476807       0.000000        69.43      0.4149022E-03  0.7992376E-03 -0.1474515E-16   7.476807     -0.5738331E-14
    443  -2.6953       7.264709       0.000000        69.59     -0.4130311E-03  0.7981765E-03 -0.1426810E-15   7.264709     -0.1820058E-13
    444  -2.6562       7.055664       0.000000        69.74      0.4111727E-03  0.7971326E-03  0.1930299E-16   7.055664     -0.4925273E-15
    445  -2.6172       6.849670       0.000000        69.90     -0.4093268E-03  0.7961056E-03  0.1322727E-16   6.849670      0.1694505E-13
    446  -2.5781       6.646729       0.000000        70.06      0.4074933E-03  0.7950956E-03  0.1019318E-15   6.646729     -0.5342948E-14
    447  -2.5391       6.446838       0.000000        70.21     -0.4056722E-03  0.7941024E-03  0.1949612E-14   6.446838      0.1418310E-13
    448  -2.5000       6.250000       0.000000        70.37      0.4038631E-03  0.7931260E-03   0.000000       6.250000     -0.1745879E-13
    449  -2.4609       6.056213       0.000000        70.53     -0.4020662E-03  0.7921663E-03 -0.3414990E-16   6.056213     -0.5038174E-14
    450  -2.4219       5.865479       0.000000        70.69      0.4002812E-03  0.7912233E-03 -0.1655342E-15   5.865479      0.7080355E-15
    451  -2.3828       5.677795       0.000000        70.84     -0.3985081E-03  0.7902968E-03 -0.6819841E-16   5.677795      0.1566883E-13
    452  -2.3438       5.493164       0.000000        71.00      0.3967467E-03  0.7893868E-03  0.2937121E-16   5.493164      0.2109477E-13
    453  -2.3047       5.311584       0.000000        71.16     -0.3949970E-03  0.7884931E-03 -0.1438958E-15   5.311584     -0.9436896E-15
    454  -2.2656       5.133057       0.000000        71.31      0.3932589E-03  0.7876158E-03  0.5843312E-16   5.133057     -0.4859909E-15
    455  -2.2266       4.957581       0.000000        71.47     -0.3915322E-03  0.7867548E-03  0.1838448E-15   4.957581     -0.1175475E-13
    456  -2.1875       4.785156       0.000000        71.63      0.3898168E-03  0.7859100E-03  0.2910549E-16   4.785156      0.4537768E-14
    457  -2.1484       4.615784       0.000000        71.79     -0.3881127E-03  0.7850813E-03  0.2726691E-15   4.615784      0.8236870E-14
    458  -2.1094       4.449463       0.000000        71.94      0.3864197E-03  0.7842687E-03  0.4676996E-16   4.449463      0.1835351E-13
    459  -2.0703       4.286194       0.000000        72.10     -0.3847378E-03  0.7834721E-03  0.4451657E-16   4.286194     -0.1032956E-14
    460  -2.0312       4.125977       0.000000        72.26      0.3830669E-03  0.7826914E-03 -0.2077838E-16   4.125977     -0.1540434E-14
    461  -1.9922       3.968811       0.000000        72.41     -0.3814068E-03  0.7819266E-03 -0.1457687E-15   3.968811     -0.2807463E-13
    462  -1.9531       3.814697       0.000000        72.57      0.3797574E-03  0.7811776E-03  0.7279510E-16   3.814697      0.1894318E-13
    463  -1.9141       3.663635       0.000000        72.73     -0.3781188E-03  0.7804444E-03  0.3956278E-16   3.663635     -0.1328258E-13
    464  -1.8750       3.515625       0.000000        72.88      0.3764907E-03  0.7797268E-03 -0.1121406E-17   3.515625     -0.1212972E-13
    465  -1.8359       3.370667       0.000000        73.04     -0.3748732E-03  0.7790250E-03 -0.3786953E-15   3.370667     -0.6643929E-14
    466  -1.7969       3.228760       0.000000        73.20      0.3732660E-03  0.7783387E-03 -0.6452380E-16   3.228760      0.5003077E-14
    467  -1.7578       3.089905       0.000000        73.36     -0.3716691E-03  0.7776679E-03 -0.2406418E-15   3.089905      0.3864696E-14
    468  -1.7188       2.954102       0.000000        73.51      0.3700825E-03  0.7770127E-03  0.1395220E-16   2.954102      0.3015643E-13
    469  -1.6797       2.821350       0.000000        73.67     -0.3685060E-03  0.7763729E-03  0.7906378E-16   2.821350     -0.1801337E-13
    470  -1.6406       2.691650       0.000000        73.83      0.3669396E-03  0.7757484E-03 -0.5532404E-16   2.691650      0.3581006E-14
    471  -1.6016       2.565002       0.000000        73.98     -0.3653831E-03  0.7751393E-03 -0.2702893E-15   2.565002      0.1732602E-13
    472  -1.5625       2.441406       0.000000        74.14      0.3638365E-03  0.7745455E-03  0.2303396E-16   2.441406     -0.1475236E-13
    473  -1.5234       2.320862       0.000000        74.30     -0.3622997E-03  0.7739670E-03 -0.3110043E-15   2.320862      0.8397403E-15
    474  -1.4844       2.203369       0.000000        74.46      0.3607726E-03  0.7734036E-03  0.2512796E-16   2.203369      0.5692576E-15
    475  -1.4453       2.088928       0.000000        74.61     -0.3592552E-03  0.7728554E-03  0.7892992E-16   2.088928     -0.1214987E-13
    476  -1.4062       1.977539       0.000000        74.77      0.3577473E-03  0.7723223E-03  0.1732170E-16   1.977539     -0.1510611E-13
    477  -1.3672       1.869202       0.000000        74.93     -0.3562489E-03  0.7718043E-03 -0.1037092E-15   1.869202      0.2195466E-13
    478  -1.3281       1.763916       0.000000        75.08      0.3547598E-03  0.7713014E-03 -0.2452591E-15   1.763916      0.3552714E-14
    479  -1.2891       1.661682       0.000000        75.24     -0.3532801E-03  0.7708134E-03  0.1974182E-14   1.661682     -0.5593017E-14
    480  -1.2500       1.562500       0.000000        75.40      0.3518097E-03  0.7703404E-03   0.000000       1.562500     -0.7473323E-14
    481  -1.2109       1.466370       0.000000        75.56     -0.3503484E-03  0.7698823E-03  0.5208667E-15   1.466370      0.1752138E-14
    482  -1.1719       1.373291       0.000000        75.71      0.3488961E-03  0.7694391E-03  0.5950058E-15   1.373291     -0.3660468E-14
    483  -1.1328       1.283264       0.000000        75.87     -0.3474529E-03  0.7690108E-03 -0.1353000E-15   1.283264      0.1664300E-13
    484  -1.0938       1.196289       0.000000        76.03      0.3460187E-03  0.7685972E-03  0.9864143E-17   1.196289      0.1283178E-13
    485  -1.0547       1.112366       0.000000        76.18     -0.3445932E-03  0.7681985E-03  0.3868258E-16   1.112366     -0.6280370E-15
    486  -1.0156       1.031494       0.000000        76.34      0.3431766E-03  0.7678145E-03 -0.2596979E-16   1.031494      0.1542337E-14
    487 -0.97656      0.9536743       0.000000        76.50     -0.3417687E-03  0.7674453E-03  0.3171810E-15  0.9536743      0.8587887E-15
    488 -0.93750      0.8789062       0.000000        76.65      0.3403695E-03  0.7670908E-03 -0.2812542E-17  0.8789062      0.5107026E-14
    489 -0.89844      0.8071899       0.000000        76.81     -0.3389788E-03  0.7667509E-03  0.3629389E-15  0.8071899      0.9870644E-14
    490 -0.85938      0.7385254       0.000000        76.97      0.3375966E-03  0.7664257E-03 -0.1091313E-15  0.7385254      0.1658042E-13
    491 -0.82031      0.6729126       0.000000        77.13     -0.3362229E-03  0.7661151E-03  0.9258304E-17  0.6729126     -0.4959541E-14
    492 -0.78125      0.6103516       0.000000        77.28      0.3348575E-03  0.7658191E-03  0.5208551E-18  0.6103516     -0.2180447E-14
    493 -0.74219      0.5508423       0.000000        77.44     -0.3335004E-03  0.7655377E-03 -0.1669671E-15  0.5508423     -0.2882593E-13
    494 -0.70312      0.4943848       0.000000        77.60      0.3321516E-03  0.7652709E-03  0.2225168E-16  0.4943848      0.2847912E-13
    495 -0.66406      0.4409790       0.000000        77.75     -0.3308109E-03  0.7650186E-03  0.3224919E-15  0.4409790     -0.1170341E-13
    496 -0.62500      0.3906250       0.000000        77.91      0.3294784E-03  0.7647808E-03  0.6220348E-17  0.3906250     -0.1176836E-13
    497 -0.58594      0.3433228       0.000000        78.07     -0.3281538E-03  0.7645575E-03  0.1311655E-15  0.3433228     -0.9496605E-15
    498 -0.54688      0.2990723       0.000000        78.23      0.3268373E-03  0.7643487E-03  0.5064291E-16  0.2990723     -0.7410739E-14
    499 -0.50781      0.2578735       0.000000        78.38     -0.3255286E-03  0.7641543E-03 -0.3032279E-15  0.2578735      0.1005446E-13
    500 -0.46875      0.2197266       0.000000        78.54      0.3242278E-03  0.7639745E-03  0.7313124E-18  0.2197266      0.1473141E-13
    501 -0.42969      0.1846313       0.000000        78.70     -0.3229348E-03  0.7638090E-03 -0.1136966E-15  0.1846313     -0.1799595E-13
    502 -0.39062      0.1525879       0.000000        78.85      0.3216494E-03  0.7636580E-03  0.1853688E-15  0.1525879     -0.6531267E-14
    503 -0.35156      0.1235962       0.000000        79.01     -0.3203718E-03  0.7635214E-03 -0.1632340E-15  0.1235962      0.1905937E-13
    504 -0.31250      0.9765625E-01   0.000000        79.17      0.3191017E-03  0.7633992E-03   0.000000      0.9765625E-01 -0.4337480E-15
    505 -0.27344      0.7476807E-01   0.000000        79.33     -0.3178392E-03  0.7632914E-03 -0.1092365E-15  0.7476807E-01 -0.3986462E-14
    506 -0.23438      0.5493164E-01   0.000000        79.48      0.3165842E-03  0.7631980E-03 -0.1556145E-16  0.5493164E-01  0.2810386E-14
    507 -0.19531      0.3814697E-01   0.000000        79.64     -0.3153366E-03  0.7631190E-03  0.5768794E-16  0.3814697E-01 -0.9946837E-14
    508 -0.15625      0.2441406E-01   0.000000        79.80      0.3140963E-03  0.7630544E-03  0.1088395E-17  0.2441406E-01 -0.1135366E-13
    509 -0.11719      0.1373291E-01   0.000000        79.95     -0.3128633E-03  0.7630041E-03  0.2216361E-15  0.1373291E-01  0.2229807E-13
    510 -0.78125E-01  0.6103516E-02   0.000000        80.11      0.3116376E-03  0.7629682E-03  0.2125204E-15  0.6103516E-02 -0.2803045E-14
    511 -0.39062E-01  0.1525879E-02   0.000000        80.27     -0.3104191E-03  0.7629466E-03  0.6835481E-15  0.1525879E-02 -0.6557926E-15
    512   0.0000       0.000000       0.000000        80.42      0.3092077E-03  0.7629395E-03   0.000000       0.000000      0.3543711E-30
    513  0.39062E-01  0.1525879E-02   0.000000        80.58     -0.3080034E-03  0.7629466E-03 -0.2931683E-15  0.1525879E-02 -0.5689893E-15
    514  0.78125E-01  0.6103516E-02   0.000000        80.74      0.3068061E-03  0.7629682E-03 -0.2133710E-15  0.6103516E-02 -0.7494005E-14
    515  0.11719      0.1373291E-01   0.000000        80.90     -0.3056158E-03  0.7630041E-03 -0.1864828E-15  0.1373291E-01  0.1962319E-13
    516  0.15625      0.2441406E-01   0.000000        81.05      0.3044324E-03  0.7630544E-03  0.4466913E-16  0.2441406E-01  0.1193490E-14
    517  0.19531      0.3814697E-01   0.000000        81.21     -0.3032558E-03  0.7631190E-03 -0.8716985E-16  0.3814697E-01  0.2220446E-14
    518  0.23438      0.5493164E-01   0.000000        81.37      0.3020861E-03  0.7631980E-03  0.8673617E-18  0.5493164E-01  0.1360023E-14
    519  0.27344      0.7476807E-01   0.000000        81.52     -0.3009231E-03  0.7632914E-03  0.9280771E-16  0.7476807E-01 -0.6800116E-14
    520  0.31250      0.9765625E-01   0.000000        81.68      0.2997668E-03  0.7633992E-03 -0.5204170E-17  0.9765625E-01 -0.2053913E-14
    521  0.35156      0.1235962       0.000000        81.84     -0.2986172E-03  0.7635214E-03  0.1632808E-15  0.1235962      0.2803313E-14
    522  0.39062      0.1525879       0.000000        82.00      0.2974742E-03  0.7636580E-03 -0.1632808E-15  0.1525879      0.7438494E-14
    523  0.42969      0.1846313       0.000000        82.15     -0.2963377E-03  0.7638090E-03  0.1218643E-15  0.1846313      0.5717649E-14
    524  0.46875      0.2197266       0.000000        82.31      0.2952077E-03  0.7639745E-03 -0.5637851E-17  0.2197266     -0.9756085E-14
    525  0.50781      0.2578735       0.000000        82.47     -0.2940842E-03  0.7641543E-03  0.2950114E-15  0.2578735     -0.1867256E-13
    526  0.54688      0.2990723       0.000000        82.62      0.2929670E-03  0.7643487E-03 -0.6169110E-16  0.2990723      0.2205180E-13
    527  0.58594      0.3433228       0.000000        82.78     -0.2918563E-03  0.7645575E-03 -0.1324082E-15  0.3433228     -0.5891988E-14
    528  0.62500      0.3906250       0.000000        82.94      0.2907518E-03  0.7647808E-03  0.1301043E-17  0.3906250     -0.2664535E-14
    529  0.66406      0.4409790       0.000000        83.10     -0.2896536E-03  0.7650186E-03 -0.3138223E-15  0.4409790      0.1558649E-14
    530  0.70312      0.4943848       0.000000        83.25      0.2885616E-03  0.7652709E-03 -0.2645453E-16  0.4943848     -0.6245005E-14
    531  0.74219      0.5508423       0.000000        83.41     -0.2874757E-03  0.7655377E-03  0.1713039E-15  0.5508423      0.1792316E-13
    532  0.78125      0.6103516       0.000000        83.57      0.2863960E-03  0.7658191E-03 -0.1821460E-16  0.6103516      0.9950374E-14
    533  0.82031      0.6729126       0.000000        83.72     -0.2853224E-03  0.7661151E-03 -0.1040834E-16  0.6729126     -0.1401657E-13
    534  0.85938      0.7385254       0.000000        83.88      0.2842547E-03  0.7664257E-03  0.1127570E-15  0.7385254     -0.1920686E-13
    535  0.89844      0.8071899       0.000000        84.04     -0.2831931E-03  0.7667509E-03 -0.4050579E-15  0.8071899      0.1398881E-13
    536  0.93750      0.8789062       0.000000        84.19      0.2821374E-03  0.7670908E-03 -0.3469447E-17  0.8789062     -0.4690692E-14
    537  0.97656      0.9536743       0.000000        84.35     -0.2810876E-03  0.7674453E-03 -0.3070461E-15  0.9536743      0.1360023E-14
    538   1.0156       1.031494       0.000000        84.51      0.2800436E-03  0.7678145E-03 -0.6938894E-17   1.031494     -0.1498801E-14
    539   1.0547       1.112366       0.000000        84.67     -0.2790055E-03  0.7681985E-03  0.6938894E-16   1.112366      0.1693090E-14
    540   1.0938       1.196289       0.000000        84.82      0.2779731E-03  0.7685972E-03  0.6938894E-17   1.196289     -0.1873501E-13
    541   1.1328       1.283264       0.000000        84.98     -0.2769464E-03  0.7690108E-03  0.1804112E-15   1.283264      0.1884604E-13
    542   1.1719       1.373291       0.000000        85.14      0.2759254E-03  0.7694391E-03 -0.1110223E-15   1.373291     -0.6661338E-14
    543   1.2109       1.466370       0.000000        85.29     -0.2749100E-03  0.7698823E-03  0.3330669E-15   1.466370     -0.1063039E-13
    544   1.2500       1.562500       0.000000        85.45      0.2739003E-03  0.7703404E-03   0.000000       1.562500      0.7473323E-14
    545   1.2891       1.661682       0.000000        85.61     -0.2728960E-03  0.7708134E-03 -0.2412447E-15   1.661682     -0.1356487E-14
    546   1.3281       1.763916       0.000000        85.77      0.2718973E-03  0.7713014E-03 -0.4172221E-15   1.763916     -0.1003010E-13
    547   1.3672       1.869202       0.000000        85.92     -0.2709041E-03  0.7718043E-03  0.1387863E-15   1.869202      0.2071600E-13
    548   1.4062       1.977539       0.000000        86.08      0.2699163E-03  0.7723223E-03 -0.6394696E-17   1.977539     -0.1042249E-13
    549   1.4453       2.088928       0.000000        86.24     -0.2689339E-03  0.7728554E-03 -0.1728474E-15   2.088928      0.3292572E-14
    550   1.4844       2.203369       0.000000        86.39      0.2679568E-03  0.7734036E-03  0.1615821E-18   2.203369      0.1120564E-14
    551   1.5234       2.320862       0.000000        86.55     -0.2669851E-03  0.7739670E-03  0.3431772E-15   2.320862      0.2530684E-15
    552   1.5625       2.441406       0.000000        86.71      0.2660187E-03  0.7745455E-03 -0.2974125E-17   2.441406     -0.8659740E-14
    553   1.6016       2.565002       0.000000        86.87     -0.2650574E-03  0.7751393E-03  0.3103494E-15   2.565002     -0.7372642E-14
    554   1.6406       2.691650       0.000000        87.02      0.2641014E-03  0.7757484E-03  0.3445848E-16   2.691650      0.2737461E-14
    555   1.6797       2.821350       0.000000        87.18     -0.2631505E-03  0.7763729E-03 -0.8299882E-16   2.821350      0.1478665E-13
    556   1.7188       2.954102       0.000000        87.34      0.2622048E-03  0.7770127E-03 -0.9324139E-17   2.954102     -0.1100182E-13
    557   1.7578       3.089905       0.000000        87.49     -0.2612642E-03  0.7776679E-03  0.2443026E-15   3.089905     -0.8343953E-14
    558   1.7969       3.228760       0.000000        87.65      0.2603286E-03  0.7783387E-03  0.5957796E-16   3.228760      0.2331822E-13
    559   1.8359       3.370667       0.000000        87.81     -0.2593980E-03  0.7790250E-03  0.3725190E-15   3.370667     -0.8242673E-14
    560   1.8750       3.515625       0.000000        87.96      0.2584724E-03  0.7797268E-03  0.1653932E-17   3.515625      0.7327472E-14
    561   1.9141       3.663635       0.000000        88.12     -0.2575518E-03  0.7804444E-03 -0.3916362E-16   3.663635      0.8138388E-14
    562   1.9531       3.814697       0.000000        88.28      0.2566360E-03  0.7811776E-03 -0.6196111E-16   3.814697     -0.8743006E-14
    563   1.9922       3.968811       0.000000        88.44     -0.2557252E-03  0.7819266E-03  0.1379105E-15   3.968811      0.2596548E-13
    564   2.0312       4.125977       0.000000        88.59      0.2548191E-03  0.7826914E-03  0.9026507E-17   4.125977      0.6002009E-14
    565   2.0703       4.286194       0.000000        88.75     -0.2539179E-03  0.7834721E-03 -0.3542997E-16   4.286194     -0.1292703E-13
    566   2.1094       4.449463       0.000000        88.91      0.2530215E-03  0.7842687E-03 -0.5795165E-16   4.449463     -0.2268665E-13
    567   2.1484       4.615784       0.000000        89.06     -0.2521298E-03  0.7850813E-03 -0.2558081E-15   4.615784      0.1437739E-13
    568   2.1875       4.785156       0.000000        89.22      0.2512428E-03  0.7859100E-03 -0.2959872E-16   4.785156     -0.8912808E-14
    569   2.2266       4.957581       0.000000        89.38     -0.2503604E-03  0.7867548E-03 -0.2755937E-15   4.957581      0.1103638E-13
    570   2.2656       5.133057       0.000000        89.54      0.2494828E-03  0.7876158E-03 -0.3859760E-16   5.133057     -0.2921409E-14
    571   2.3047       5.311584       0.000000        89.69     -0.2486097E-03  0.7884931E-03  0.1144917E-15   5.311584      0.1126169E-13
    572   2.3438       5.493164       0.000000        89.85      0.2477412E-03  0.7893868E-03 -0.5345536E-16   5.493164     -0.1543917E-13
    573   2.3828       5.677795       0.000000        90.01     -0.2468772E-03  0.7902968E-03  0.7480995E-17   5.677795      0.1547347E-13
    574   2.4219       5.865479       0.000000        90.16      0.2460178E-03  0.7912233E-03 -0.1365178E-15   5.865479     -0.7119305E-14
    575   2.4609       6.056213       0.000000        90.32     -0.2451628E-03  0.7921663E-03 -0.2452574E-14   6.056213     -0.1423861E-13
    576   2.5000       6.250000       0.000000        90.48      0.2443123E-03  0.7931260E-03   0.000000       6.250000      0.1745879E-13
    577   2.5391       6.446838       0.000000        90.63     -0.2434662E-03  0.7941024E-03 -0.3436674E-16   6.446838     -0.2095009E-14
    578   2.5781       6.646729       0.000000        90.79      0.2426245E-03  0.7950956E-03  0.2447279E-15   6.646729     -0.1142169E-13
    579   2.6172       6.849670       0.000000        90.95     -0.2417871E-03  0.7961056E-03 -0.6819841E-16   6.849670      0.1450202E-13
    580   2.6562       7.055664       0.000000        91.11      0.2409541E-03  0.7971326E-03  0.2113127E-16   7.055664     -0.2092824E-13
    581   2.6953       7.264709       0.000000        91.26     -0.2401253E-03  0.7981765E-03  0.2225813E-15   7.264709      0.1357194E-13
    582   2.7344       7.476807       0.000000        91.42      0.2393009E-03  0.7992376E-03 -0.1117686E-16   7.476807      0.8091019E-14
    583   2.7734       7.691956       0.000000        91.58     -0.2384806E-03  0.8003159E-03  0.1102950E-14   7.691956      0.3749686E-15
    584   2.8125       7.910156       0.000000        91.73      0.2376646E-03  0.8014115E-03 -0.7867897E-17   7.910156     -0.1885965E-13
    585   2.8516       8.131409       0.000000        91.89     -0.2368528E-03  0.8025244E-03  0.6523132E-15   8.131409     -0.3372571E-14
    586   2.8906       8.355713       0.000000        92.05      0.2360451E-03  0.8036548E-03 -0.2531717E-16   8.355713     -0.4954639E-14
    587   2.9297       8.583069       0.000000        92.21     -0.2352416E-03  0.8048028E-03 -0.2448384E-15   8.583069      0.1075502E-13
    588   2.9688       8.813477       0.000000        92.36      0.2344421E-03  0.8059684E-03  0.4649303E-17   8.813477     -0.1219858E-13
    589   3.0078       9.046936       0.000000        92.52     -0.2336467E-03  0.8071517E-03 -0.2489232E-15   9.046936     -0.1644786E-14
    590   3.0469       9.283447       0.000000        92.68      0.2328553E-03  0.8083529E-03  0.3500687E-16   9.283447      0.1006140E-13
    591   3.0859       9.523010       0.000000        92.83     -0.2320680E-03  0.8095720E-03 -0.6742507E-15   9.523010      0.1574798E-14
    592   3.1250       9.765625       0.000000        92.99      0.2312847E-03  0.8108091E-03  0.3323823E-17   9.765625     -0.5633845E-14
    593   3.1641       10.01129       0.000000        93.15     -0.2305053E-03  0.8120644E-03 -0.1950279E-15   10.01129      0.6652602E-14
    594   3.2031       10.26001       0.000000        93.31      0.2297298E-03  0.8133379E-03  0.5180672E-16   10.26001     -0.1860985E-13
    595   3.2422       10.51178       0.000000        93.46     -0.2289583E-03  0.8146298E-03  0.3758525E-15   10.51178      0.2487620E-13
    596   3.2812       10.76660       0.000000        93.62      0.2281906E-03  0.8159401E-03  0.1109497E-16   10.76660      0.2344273E-14
    597   3.3203       11.02448       0.000000        93.78     -0.2274268E-03  0.8172689E-03  0.2333012E-15   11.02448     -0.5274096E-14
    598   3.3594       11.28540       0.000000        93.93      0.2266668E-03  0.8186165E-03  0.3042359E-16   11.28540     -0.3103181E-13
    599   3.3984       11.54938       0.000000        94.09     -0.2259106E-03  0.8199828E-03  0.4695083E-15   11.54938     -0.2220446E-15
    600   3.4375       11.81641       0.000000        94.25      0.2251582E-03  0.8213680E-03 -0.1239401E-17   11.81641     -0.7646929E-14
    601   3.4766       12.08649       0.000000        94.40     -0.2244095E-03  0.8227723E-03  0.7467685E-15   12.08649      0.1097760E-13
    602   3.5156       12.35962       0.000000        94.56      0.2236646E-03  0.8241957E-03  0.4990512E-16   12.35962     -0.1615375E-13
    603   3.5547       12.63580       0.000000        94.72     -0.2229234E-03  0.8256383E-03 -0.7356417E-16   12.63580      0.2285698E-13
    604   3.5938       12.91504       0.000000        94.88      0.2221858E-03  0.8271003E-03 -0.6838553E-16   12.91504     -0.3026826E-13
    605   3.6328       13.19733       0.000000        95.03     -0.2214519E-03  0.8285818E-03  0.1622498E-15   13.19733      0.1309902E-13
    606   3.6719       13.48267       0.000000        95.19      0.2207217E-03  0.8300829E-03 -0.4314705E-16   13.48267     -0.1923515E-13
    607   3.7109       13.77106       0.000000        95.35     -0.2199950E-03  0.8316038E-03  0.2847618E-15   13.77106     -0.2543772E-13
    608   3.7500       14.06250       0.000000        95.50      0.2192720E-03  0.8331445E-03   0.000000       14.06250      0.1546693E-13
    609   3.7891       14.35699       0.000000        95.66     -0.2185524E-03  0.8347053E-03 -0.3262525E-15   14.35699      0.3160599E-14
    610   3.8281       14.65454       0.000000        95.82      0.2178365E-03  0.8362862E-03  0.2541414E-15   14.65454     -0.8774030E-14
    611   3.8672       14.95514       0.000000        95.98     -0.2171240E-03  0.8378874E-03  0.1768250E-15   14.95514      0.2071600E-13
    612   3.9062       15.25879       0.000000        96.13      0.2164150E-03  0.8395091E-03 -0.1169833E-15   15.25879     -0.2154703E-13
    613   3.9453       15.56549       0.000000        96.29     -0.2157095E-03  0.8411512E-03 -0.1233647E-16   15.56549     -0.2924677E-14
    614   3.9844       15.87524       0.000000        96.45      0.2150074E-03  0.8428141E-03 -0.4450335E-16   15.87524      0.5507579E-14
    615   4.0234       16.18805       0.000000        96.60     -0.2143088E-03  0.8444979E-03 -0.3317093E-15   16.18805      0.6080105E-14
    616   4.0625       16.50391       0.000000        96.76      0.2136136E-03  0.8462026E-03  0.6715670E-17   16.50391     -0.2864375E-13
    617   4.1016       16.82281       0.000000        96.92     -0.2129217E-03  0.8479285E-03 -0.1322207E-15   16.82281     -0.1891896E-13
    618   4.1406       17.14478       0.000000        97.08      0.2122332E-03  0.8496757E-03  0.2879472E-17   17.14478     -0.1413793E-13
    619   4.1797       17.46979       0.000000        97.23     -0.2115480E-03  0.8514443E-03 -0.1103059E-15   17.46979      0.1039963E-13
    620   4.2188       17.79785       0.000000        97.39      0.2108661E-03  0.8532345E-03  0.4249634E-17   17.79785     -0.1472270E-13
    621   4.2578       18.12897       0.000000        97.55     -0.2101876E-03  0.8550465E-03 -0.1483189E-15   18.12897     -0.3328901E-14
    622   4.2969       18.46313       0.000000        97.70      0.2095123E-03  0.8568804E-03 -0.3711820E-17   18.46313      0.1290444E-13
    623   4.3359       18.80035       0.000000        97.86     -0.2088402E-03  0.8587365E-03  0.8196973E-16   18.80035     -0.6266588E-14
    624   4.3750       19.14062       0.000000        98.02      0.2081714E-03  0.8606147E-03 -0.3509842E-17   19.14062      0.1043610E-13
    625   4.4141       19.48395       0.000000        98.17     -0.2075058E-03  0.8625154E-03 -0.1340929E-15   19.48395      0.9600726E-14
    626   4.4531       19.83032       0.000000        98.33      0.2068434E-03  0.8644387E-03 -0.6473754E-16   19.83032     -0.2162159E-13
    627   4.4922       20.17975       0.000000        98.49     -0.2061841E-03  0.8663848E-03  0.3712074E-15   20.17975      0.2515349E-13
    628   4.5312       20.53223       0.000000        98.65      0.2055280E-03  0.8683538E-03  0.9568608E-17   20.53223     -0.8208846E-14
    629   4.5703       20.88776       0.000000        98.80     -0.2048750E-03  0.8703459E-03  0.3405117E-15   20.88776     -0.6002814E-15
    630   4.6094       21.24634       0.000000        98.96      0.2042251E-03  0.8723613E-03 -0.7250340E-16   21.24634     -0.3876583E-13
    631   4.6484       21.60797       0.000000        99.12     -0.2035783E-03  0.8744002E-03 -0.4135498E-16   21.60797     -0.1051066E-13
    632   4.6875       21.97266       0.000000        99.27      0.2029346E-03  0.8764628E-03 -0.9757820E-17   21.97266     -0.2759938E-13
    633   4.7266       22.34039       0.000000        99.43     -0.2022939E-03  0.8785493E-03  0.7725255E-16   22.34039      0.2924404E-13
    634   4.7656       22.71118       0.000000        99.59      0.2016563E-03  0.8806598E-03 -0.3452869E-16   22.71118     -0.1568897E-13
    635   4.8047       23.08502       0.000000        99.75     -0.2010216E-03  0.8827945E-03 -0.3497720E-15   23.08502      0.2077151E-13
    636   4.8438       23.46191       0.000000        99.90      0.2003900E-03  0.8849537E-03 -0.3122922E-16   23.46191     -0.1856685E-13
    637   4.8828       23.84186       0.000000        100.1     -0.1997613E-03  0.8871376E-03 -0.2817009E-15   23.84186     -0.1019664E-13
    638   4.9219       24.22485       0.000000        100.2      0.1991356E-03  0.8893463E-03 -0.1476851E-15   24.22485     -0.3091998E-13
    639   4.9609       24.61090       0.000000        100.4     -0.1985128E-03  0.8915801E-03  0.6500205E-15   24.61090     -0.1716329E-13
    640   5.0000       25.00000       0.000000        100.5      0.1978929E-03  0.8938392E-03   0.000000       25.00000      0.1715402E-13
    641   5.0391       25.39215       0.000000        100.7     -0.1972760E-03  0.8961237E-03 -0.1141083E-14   25.39215      0.6869505E-14
    642   5.0781       25.78735       0.000000        100.8      0.1966619E-03  0.8984340E-03  0.3371440E-16   25.78735     -0.1349028E-13
    643   5.1172       26.18561       0.000000        101.0     -0.1960507E-03  0.9007701E-03  0.6606959E-16   26.18561      0.2279055E-13
    644   5.1562       26.58691       0.000000        101.2      0.1954423E-03  0.9031325E-03 -0.8084364E-16   26.58691     -0.3627976E-13
    645   5.1953       26.99127       0.000000        101.3     -0.1948367E-03  0.9055212E-03  0.1143115E-15   26.99127      0.6828945E-14
    646   5.2344       27.39868       0.000000        101.5      0.1942340E-03  0.9079365E-03 -0.7331541E-16   27.39868      0.1340702E-13
    647   5.2734       27.80914       0.000000        101.6     -0.1936340E-03  0.9103786E-03 -0.3906723E-15   27.80914      0.2439930E-13
    648   5.3125       28.22266       0.000000        101.8      0.1930369E-03  0.9128478E-03  0.3511538E-16   28.22266     -0.1637794E-13
    649   5.3516       28.63922       0.000000        101.9     -0.1924424E-03  0.9153443E-03 -0.3882927E-15   28.63922     -0.3191891E-14
    650   5.3906       29.05884       0.000000        102.1      0.1918508E-03  0.9178684E-03 -0.2495308E-18   29.05884     -0.1371233E-13
    651   5.4297       29.48151       0.000000        102.3     -0.1912618E-03  0.9204203E-03  0.2743677E-15   29.48151      0.1338033E-13
    652   5.4688       29.90723       0.000000        102.4      0.1906756E-03  0.9230002E-03 -0.2550245E-17   29.90723     -0.9590625E-14
    653   5.5078       30.33600       0.000000        102.6     -0.1900920E-03  0.9256085E-03  0.2002653E-15   30.33600     -0.3573530E-14
    654   5.5469       30.76782       0.000000        102.7      0.1895111E-03  0.9282453E-03 -0.1012667E-16   30.76782      0.8563668E-14
    655   5.5859       31.20270       0.000000        102.9     -0.1889329E-03  0.9309110E-03  0.3251790E-15   31.20270      0.7874777E-14
    656   5.6250       31.64062       0.000000        103.0      0.1883573E-03  0.9336057E-03  0.1025205E-17   31.64062      0.7105427E-14
    657   5.6641       32.08160       0.000000        103.2     -0.1877844E-03  0.9363298E-03  0.1860829E-15   32.08160      0.1044043E-13
    658   5.7031       32.52563       0.000000        103.4      0.1872141E-03  0.9390836E-03 -0.7901490E-16   32.52563     -0.4022212E-13
    659   5.7422       32.97272       0.000000        103.5     -0.1866463E-03  0.9418673E-03 -0.2246227E-15   32.97272      0.2203313E-13
    660   5.7812       33.42285       0.000000        103.7      0.1860811E-03  0.9446812E-03  0.1152601E-16   33.42285     -0.7369105E-14
    661   5.8203       33.87604       0.000000        103.8     -0.1855185E-03  0.9475256E-03 -0.3257494E-15   33.87604      0.5801989E-14
    662   5.8594       34.33228       0.000000        104.0      0.1849585E-03  0.9504008E-03  0.3916514E-16   34.33228     -0.4047085E-13
    663   5.8984       34.79156       0.000000        104.1     -0.1844010E-03  0.9533070E-03 -0.5412822E-16   34.79156     -0.5829744E-14
    664   5.9375       35.25391       0.000000        104.3      0.1838460E-03  0.9562446E-03 -0.1920524E-16   35.25391     -0.1137979E-14
    665   5.9766       35.71930       0.000000        104.5     -0.1832935E-03  0.9592140E-03  0.2315152E-15   35.71930      0.9632258E-14
    666   6.0156       36.18774       0.000000        104.6      0.1827434E-03  0.9622153E-03 -0.7657440E-16   36.18774      0.2775558E-15
    667   6.0547       36.65924       0.000000        104.8     -0.1821959E-03  0.9652489E-03  0.8389190E-16   36.65924      0.3006251E-13
    668   6.0938       37.13379       0.000000        104.9      0.1816508E-03  0.9683151E-03 -0.1611440E-17   37.13379     -0.1279639E-13
    669   6.1328       37.61139       0.000000        105.1     -0.1811082E-03  0.9714143E-03  0.2150459E-15   37.61139      0.4729181E-15
    670   6.1719       38.09204       0.000000        105.2      0.1805679E-03  0.9745468E-03  0.3756865E-16   38.09204     -0.1582175E-13
    671   6.2109       38.57574       0.000000        105.4     -0.1800301E-03  0.9777129E-03 -0.1103488E-14   38.57574     -0.1651671E-13
    672   6.2500       39.06250       0.000000        105.6      0.1794947E-03  0.9809129E-03   0.000000       39.06250      0.2006021E-13
    673   6.2891       39.55231       0.000000        105.7     -0.1789617E-03  0.9841472E-03  0.7837795E-15   39.55231     -0.7941631E-14
    674   6.3281       40.04517       0.000000        105.9      0.1784311E-03  0.9874162E-03  0.3330881E-15   40.04517     -0.1128618E-13
    675   6.3672       40.54108       0.000000        106.0     -0.1779028E-03  0.9907201E-03 -0.9151505E-16   40.54108      0.1486665E-13
    676   6.4062       41.04004       0.000000        106.2      0.1773768E-03  0.9940595E-03 -0.4564701E-16   41.04004     -0.4358986E-13
    677   6.4453       41.54205       0.000000        106.3     -0.1768532E-03  0.9974345E-03 -0.5288353E-16   41.54205     -0.1839161E-13
    678   6.4844       42.04712       0.000000        106.5      0.1763319E-03  0.1000846E-02  0.1047892E-15   42.04712      0.4152995E-14
    679   6.5234       42.55524       0.000000        106.7     -0.1758129E-03  0.1004293E-02  0.3412512E-16   42.55524      0.3777207E-13
    680   6.5625       43.06641       0.000000        106.8      0.1752962E-03  0.1007778E-02 -0.8735259E-17   43.06641     -0.2109424E-13
    681   6.6016       43.58063       0.000000        107.0     -0.1747817E-03  0.1011299E-02 -0.2433682E-16   43.58063     -0.3098556E-13
    682   6.6406       44.09790       0.000000        107.1      0.1742695E-03  0.1014859E-02 -0.4226474E-16   44.09790     -0.2871668E-13
    683   6.6797       44.61823       0.000000        107.3     -0.1737596E-03  0.1018456E-02  0.1001292E-15   44.61823      0.8417012E-14
    684   6.7188       45.14160       0.000000        107.4      0.1732519E-03  0.1022092E-02  0.1301043E-17   45.14160     -0.1256267E-13
    685   6.7578       45.66803       0.000000        107.6     -0.1727464E-03  0.1025766E-02 -0.9464381E-17   45.66803      0.9939898E-14
    686   6.7969       46.19751       0.000000        107.8      0.1722432E-03  0.1029480E-02  0.5361275E-16   46.19751     -0.1030493E-14
    687   6.8359       46.73004       0.000000        107.9     -0.1717421E-03  0.1033234E-02 -0.6541869E-16   46.73004      0.3690204E-13
    688   6.8750       47.26562       0.000000        108.1      0.1712432E-03  0.1037028E-02 -0.4472858E-17   47.26562      0.3574918E-13
    689   6.9141       47.80426       0.000000        108.2     -0.1707465E-03  0.1040862E-02 -0.1149015E-15   47.80426      0.9394462E-14
    690   6.9531       48.34595       0.000000        108.4      0.1702519E-03  0.1044737E-02  0.2965188E-16   48.34595     -0.1407208E-13
    691   6.9922       48.89069       0.000000        108.5     -0.1697595E-03  0.1048654E-02 -0.1023487E-15   48.89069      0.1634790E-13
    692   7.0312       49.43848       0.000000        108.7      0.1692692E-03  0.1052612E-02 -0.2304454E-17   49.43848      0.8514157E-14
    693   7.0703       49.98932       0.000000        108.9     -0.1687811E-03  0.1056613E-02 -0.6323242E-16   49.98932      0.1120618E-13
    694   7.1094       50.54321       0.000000        109.0      0.1682950E-03  0.1060657E-02  0.5621693E-16   50.54321     -0.3815358E-13
    695   7.1484       51.10016       0.000000        109.2     -0.1678111E-03  0.1064745E-02  0.1489835E-16   51.10016     -0.1049161E-13
    696   7.1875       51.66016       0.000000        109.3      0.1673292E-03  0.1068876E-02  0.1474515E-16   51.66016     -0.3044460E-13
    697   7.2266       52.22321       0.000000        109.5     -0.1668494E-03  0.1073051E-02 -0.7341097E-16   52.22321      0.4175473E-13
    698   7.2656       52.78931       0.000000        109.6      0.1663717E-03  0.1077271E-02  0.7806256E-16   52.78931      0.2978881E-13
    699   7.3047       53.35846       0.000000        109.8     -0.1658960E-03  0.1081537E-02  0.5941428E-16   53.35846      0.2798469E-13
    700   7.3438       53.93066       0.000000        110.0      0.1654223E-03  0.1085848E-02  0.4792593E-16   53.93066     -0.1470338E-13
    701   7.3828       54.50592       0.000000        110.1     -0.1649507E-03  0.1090206E-02 -0.3859760E-16   54.50592      0.1339233E-13
    702   7.4219       55.08423       0.000000        110.3      0.1644811E-03  0.1094611E-02  0.2667305E-15   55.08423     -0.1790235E-14
    703   7.4609       55.66559       0.000000        110.4     -0.1640135E-03  0.1099063E-02 -0.2079066E-14   55.66559     -0.1423861E-13
    704   7.5000       56.25000       0.000000        110.6      0.1635479E-03  0.1103563E-02   0.000000       56.25000      0.1745879E-13
    705   7.5391       56.83746       0.000000        110.7     -0.1630842E-03  0.1108112E-02  0.1612184E-15   56.83746      0.5010418E-14
    706   7.5781       57.42798       0.000000        110.9      0.1626226E-03  0.1112710E-02  0.4215203E-16   57.42798     -0.1852712E-13
    707   7.6172       58.02155       0.000000        111.1     -0.1621629E-03  0.1117358E-02 -0.2547665E-16   58.02155      0.2191222E-13
    708   7.6562       58.61816       0.000000        111.2      0.1617051E-03  0.1122056E-02  0.6841144E-17   58.61816     -0.4579724E-13
    709   7.6953       59.21783       0.000000        111.4     -0.1612493E-03  0.1126805E-02  0.9888393E-17   59.21783     -0.9436896E-15
    710   7.7344       59.82056       0.000000        111.5      0.1607954E-03  0.1131606E-02 -0.7079302E-16   59.82056      0.1874916E-13
    711   7.7734       60.42633       0.000000        111.7     -0.1603434E-03  0.1136459E-02 -0.4766905E-16   60.42633      0.3234939E-13
    712   7.8125       61.03516       0.000000        111.8      0.1598933E-03  0.1141365E-02  0.2120149E-16   61.03516     -0.1175422E-13
    713   7.8516       61.64703       0.000000        112.0     -0.1594451E-03  0.1146324E-02 -0.1616468E-15   61.64703     -0.2852288E-14
    714   7.8906       62.26196       0.000000        112.2      0.1589988E-03  0.1151337E-02 -0.1109547E-15   62.26196     -0.3034392E-13
    715   7.9297       62.87994       0.000000        112.3     -0.1585543E-03  0.1156405E-02 -0.1113034E-15   62.87994      0.2046186E-13
    716   7.9688       63.50098       0.000000        112.5      0.1581118E-03  0.1161529E-02  0.1037004E-16   63.50098      0.2012279E-14
    717   8.0078       64.12506       0.000000        112.6     -0.1576710E-03  0.1166708E-02 -0.4678556E-16   64.12506      0.1204579E-13
    718   8.0469       64.75220       0.000000        112.8      0.1572321E-03  0.1171945E-02 -0.6737409E-16   64.75220      0.1539047E-13
    719   8.0859       65.38239       0.000000        112.9     -0.1567951E-03  0.1177239E-02  0.2117011E-15   65.38239      0.2059444E-13
    720   8.1250       66.01562       0.000000        113.1      0.1563599E-03  0.1182591E-02 -0.5817488E-17   66.01562      0.1923515E-13
    721   8.1641       66.65192       0.000000        113.3     -0.1559264E-03  0.1188002E-02  0.2476152E-15   66.65192      0.8428959E-14
    722   8.2031       67.29126       0.000000        113.4      0.1554948E-03  0.1193473E-02  0.1855362E-16   67.29126     -0.4369435E-13
    723   8.2422       67.93365       0.000000        113.6     -0.1550650E-03  0.1199005E-02  0.1469408E-16   67.93365      0.1599442E-13
    724   8.2812       68.57910       0.000000        113.7      0.1546369E-03  0.1204597E-02  0.1120129E-16   68.57910     -0.1247613E-13
    725   8.3203       69.22760       0.000000        113.9     -0.1542106E-03  0.1210252E-02  0.8746968E-16   69.22760      0.1396105E-13
    726   8.3594       69.87915       0.000000        114.0      0.1537861E-03  0.1215970E-02 -0.4957604E-17   69.87915     -0.2067844E-13
    727   8.3984       70.53375       0.000000        114.2     -0.1533633E-03  0.1221751E-02 -0.7839010E-16   70.53375     -0.1066468E-13
    728   8.4375       71.19141       0.000000        114.4      0.1529423E-03  0.1227597E-02  0.1252787E-16   71.19141      0.9300801E-15
    729   8.4766       71.85211       0.000000        114.5     -0.1525229E-03  0.1233508E-02  0.1037048E-15   71.85211     -0.1672408E-14
    730   8.5156       72.51587       0.000000        114.7      0.1521054E-03  0.1239486E-02  0.9109852E-16   72.51587      0.1330853E-13
    731   8.5547       73.18268       0.000000        114.8     -0.1516895E-03  0.1245530E-02  0.4163336E-16   73.18268      0.2797055E-13
    732   8.5938       73.85254       0.000000        115.0      0.1512753E-03  0.1251642E-02 -0.1992379E-16   73.85254      0.1616896E-14
    733   8.6328       74.52545       0.000000        115.1     -0.1508628E-03  0.1257824E-02  0.1913127E-15   74.52545      0.1484923E-13
    734   8.6719       75.20142       0.000000        115.3      0.1504521E-03  0.1264075E-02  0.1559209E-15   75.20142     -0.1421085E-13
    735   8.7109       75.88043       0.000000        115.5     -0.1500429E-03  0.1270396E-02  0.3607554E-15   75.88043     -0.1122686E-13
    736   8.7500       76.56250       0.000000        115.6      0.1496355E-03  0.1276790E-02   0.000000       76.56250      0.1561932E-13
    737   8.7891       77.24762       0.000000        115.8     -0.1492297E-03  0.1283256E-02  0.2450457E-15   77.24762      0.1596299E-13
    738   8.8281       77.93579       0.000000        115.9      0.1488256E-03  0.1289795E-02 -0.1517927E-15   77.93579     -0.1787132E-13
    739   8.8672       78.62701       0.000000        116.1     -0.1484231E-03  0.1296409E-02  0.6072371E-16   78.62701      0.9537577E-14
    740   8.9062       79.32129       0.000000        116.2      0.1480222E-03  0.1303099E-02 -0.3870811E-16   79.32129     -0.1736628E-13
    741   8.9453       80.01862       0.000000        116.4     -0.1476229E-03  0.1309865E-02 -0.1026974E-15   80.01862     -0.1306253E-13
    742   8.9844       80.71899       0.000000        116.6      0.1472253E-03  0.1316709E-02 -0.7193996E-16   80.71899      0.1397683E-13
    743   9.0234       81.42242       0.000000        116.7     -0.1468293E-03  0.1323632E-02  0.2408532E-15   81.42242      0.1506964E-13
    744   9.0625       82.12891       0.000000        116.9      0.1464348E-03  0.1330634E-02 -0.1945181E-17   82.12891     -0.2864375E-13
    745   9.1016       82.83844       0.000000        117.0     -0.1460420E-03  0.1337718E-02 -0.1626823E-15   82.83844     -0.2743285E-13
    746   9.1406       83.55103       0.000000        117.2      0.1456507E-03  0.1344884E-02 -0.1143355E-15   83.55103     -0.3315757E-13
    747   9.1797       84.26666       0.000000        117.3     -0.1452610E-03  0.1352132E-02 -0.8962093E-16   84.26666      0.1990945E-13
    748   9.2188       84.98535       0.000000        117.5      0.1448729E-03  0.1359466E-02  0.5725026E-17   84.98535     -0.1283859E-13
    749   9.2578       85.70709       0.000000        117.7     -0.1444863E-03  0.1366885E-02 -0.3686287E-16   85.70709      0.1380663E-13
    750   9.2969       86.43188       0.000000        117.8      0.1441012E-03  0.1374391E-02 -0.2979003E-16   86.43188      0.1833770E-14
    751   9.3359       87.15973       0.000000        118.0     -0.1437177E-03  0.1381984E-02  0.4005544E-15   87.15973      0.1849465E-13
    752   9.3750       87.89062       0.000000        118.1      0.1433358E-03  0.1389668E-02 -0.7185460E-18   87.89062      0.4329870E-13
    753   9.4141       88.62457       0.000000        118.3     -0.1429553E-03  0.1397442E-02  0.9048522E-15   88.62457      0.4379410E-14
    754   9.4531       89.36157       0.000000        118.4      0.1425764E-03  0.1405307E-02 -0.8466552E-16   89.36157     -0.1451617E-13
    755   9.4922       90.10162       0.000000        118.6     -0.1421989E-03  0.1413266E-02  0.8535015E-16   90.10162      0.1538353E-13
    756   9.5312       90.84473       0.000000        118.8      0.1418230E-03  0.1421320E-02 -0.9677028E-17   90.84473     -0.2257209E-13
    757   9.5703       91.59088       0.000000        118.9     -0.1414485E-03  0.1429470E-02  0.5977574E-16   91.59088      0.3320328E-14
    758   9.6094       92.34009       0.000000        119.1      0.1410756E-03  0.1437717E-02 -0.7137023E-16   92.34009     -0.4383476E-13
    759   9.6484       93.09235       0.000000        119.2     -0.1407041E-03  0.1446063E-02  0.2114663E-15   93.09235     -0.2534955E-13
    760   9.6875       93.84766       0.000000        119.4      0.1403340E-03  0.1454510E-02  0.6938894E-17   93.84766     -0.2885546E-13
    761   9.7266       94.60602       0.000000        119.5     -0.1399655E-03  0.1463058E-02  0.9893030E-16   94.60602      0.2798796E-13
    762   9.7656       95.36743       0.000000        119.7      0.1395984E-03  0.1471709E-02  0.1219413E-16   95.36743     -0.1495318E-13
    763   9.8047       96.13190       0.000000        119.9     -0.1392327E-03  0.1480466E-02  0.2993237E-16   96.13190      0.4334387E-13
    764   9.8438       96.89941       0.000000        120.0      0.1388684E-03  0.1489329E-02  0.1088395E-17   96.89941     -0.1135366E-13
    765   9.8828       97.66998       0.000000        120.2     -0.1385056E-03  0.1498300E-02  0.1661249E-15   97.66998     -0.9676355E-14
    766   9.9219       98.44360       0.000000        120.3      0.1381442E-03  0.1507381E-02  0.2125204E-15   98.44360     -0.2411933E-13
    767   9.9609       99.22028       0.000000        120.5     -0.1377842E-03  0.1516573E-02  0.2394589E-15   99.22028     -0.2552479E-13
    768   10.000       100.0000       0.000000        120.6      0.1374257E-03  0.1525879E-02   0.000000       100.0000      0.1421085E-13
    769   10.039       100.7828       0.000000        120.8     -0.1370685E-03  0.1535299E-02  0.3601286E-14   100.7828     -0.2359224E-15
    770   10.078       101.5686       0.000000        121.0      0.1367127E-03  0.1544836E-02 -0.1006140E-15   101.5686     -0.1360023E-13
    771   10.117       102.3575       0.000000        121.1     -0.1363583E-03  0.1554492E-02 -0.1942890E-15   102.3575      0.1185163E-13
    772   10.156       103.1494       0.000000        121.3      0.1360052E-03  0.1564268E-02  0.1040834E-16   103.1494     -0.4254930E-13
    773   10.195       103.9444       0.000000        121.4     -0.1356536E-03  0.1574166E-02 -0.1674008E-15   103.9444      0.1709743E-13
    774   10.234       104.7424       0.000000        121.6      0.1353033E-03  0.1584188E-02  0.2905662E-15   104.7424      0.1601497E-13
    775   10.273       105.5435       0.000000        121.7     -0.1349543E-03  0.1594337E-02 -0.9497611E-16   105.5435      0.2739475E-13
    776   10.312       106.3477       0.000000        121.9      0.1346067E-03  0.1604614E-02  0.1734723E-17   106.3477     -0.2869927E-13
    777   10.352       107.1548       0.000000        122.1     -0.1342605E-03  0.1615020E-02 -0.9280771E-16   107.1548     -0.2081668E-14
    778   10.391       107.9651       0.000000        122.2      0.1339156E-03  0.1625559E-02  0.1183949E-15   107.9651     -0.2764455E-13
    779   10.430       108.7784       0.000000        122.4     -0.1335720E-03  0.1636233E-02  0.2138047E-15   108.7784      0.2348122E-13
    780   10.469       109.5947       0.000000        122.5      0.1332297E-03  0.1647043E-02  0.3577867E-16   109.5947     -0.1330880E-13
    781   10.508       110.4141       0.000000        122.7     -0.1328887E-03  0.1657992E-02  0.2103352E-15   110.4141      0.3017725E-13
    782   10.547       111.2366       0.000000        122.8      0.1325491E-03  0.1669082E-02  0.2157562E-16   111.2366     -0.1169898E-13
    783   10.586       112.0621       0.000000        123.0     -0.1322107E-03  0.1680315E-02 -0.2544894E-15   112.0621      0.1364794E-13
    784   10.625       112.8906       0.000000        123.2      0.1318737E-03  0.1691694E-02  0.2515349E-16   112.8906     -0.8881784E-15
    785   10.664       113.7222       0.000000        123.3     -0.1315379E-03  0.1703221E-02  0.3364821E-15   113.7222     -0.1994065E-14
    786   10.703       114.5569       0.000000        123.5      0.1312034E-03  0.1714899E-02  0.4987330E-16   114.5569     -0.4266032E-13
    787   10.742       115.3946       0.000000        123.6     -0.1308702E-03  0.1726730E-02  0.9540979E-17   115.3946      0.1437045E-13
    788   10.781       116.2354       0.000000        123.8      0.1305383E-03  0.1738716E-02 -0.1778092E-16   116.2354     -0.5148659E-14
    789   10.820       117.0792       0.000000        123.9     -0.1302076E-03  0.1750861E-02 -0.5204170E-16   117.0792      0.1795786E-13
    790   10.859       117.9260       0.000000        124.1      0.1298781E-03  0.1763167E-02 -0.1110223E-15   117.9260     -0.2275957E-13
    791   10.898       118.7759       0.000000        124.2     -0.1295500E-03  0.1775637E-02  0.1387779E-16   118.7759     -0.2864375E-13
    792   10.938       119.6289       0.000000        124.4      0.1292230E-03  0.1788273E-02  0.3122502E-16   119.6289      0.2414735E-14
    793   10.977       120.4849       0.000000        124.6     -0.1288973E-03  0.1801079E-02 -0.2844947E-15   120.4849      0.1201816E-13
    794   11.016       121.3440       0.000000        124.7      0.1285728E-03  0.1814057E-02 -0.4857226E-16   121.3440     -0.1498801E-14
    795   11.055       122.2061       0.000000        124.9     -0.1282496E-03  0.1827210E-02 -0.1977585E-15   122.2061      0.4254930E-13
    796   11.094       123.0713       0.000000        125.0      0.1279276E-03  0.1840541E-02  0.5204170E-16   123.0713     -0.9853229E-14
    797   11.133       123.9395       0.000000        125.2     -0.1276067E-03  0.1854054E-02 -0.3122502E-15   123.9395      0.6411538E-14
    798   11.172       124.8108       0.000000        125.3      0.1272871E-03  0.1867752E-02  0.2914335E-15   124.8108     -0.8437695E-14
    799   11.211       125.6851       0.000000        125.5     -0.1269687E-03  0.1881638E-02 -0.1665335E-15   125.6851     -0.2839395E-13
    800   11.250       126.5625       0.000000        125.7      0.1266515E-03  0.1895714E-02   0.000000       126.5625      0.1280239E-13
    801   11.289       127.4429       0.000000        125.8     -0.1263354E-03  0.1909986E-02 -0.9277615E-15   127.4429     -0.1912006E-13
    802   11.328       128.3264       0.000000        126.0      0.1260206E-03  0.1924456E-02 -0.3037881E-16   128.3264     -0.1180646E-13
    803   11.367       129.2130       0.000000        126.1     -0.1257069E-03  0.1939127E-02 -0.1256836E-16   129.2130      0.1361057E-13
    804   11.406       130.1025       0.000000        126.3      0.1253944E-03  0.1954003E-02  0.9725503E-16   130.1025     -0.5483141E-13
    805   11.445       130.9952       0.000000        126.4     -0.1250831E-03  0.1969089E-02  0.5396774E-16   130.9952     -0.1091828E-13
    806   11.484       131.8909       0.000000        126.6      0.1247729E-03  0.1984388E-02  0.6131058E-16   131.8909      0.1355506E-13
    807   11.523       132.7896       0.000000        126.8     -0.1244638E-03  0.1999903E-02  0.1727407E-15   132.7896      0.3755656E-13
    808   11.562       133.6914       0.000000        126.9      0.1241559E-03  0.2015639E-02  0.1654151E-16   133.6914     -0.3175238E-13
    809   11.602       134.5963       0.000000        127.1     -0.1238492E-03  0.2031600E-02  0.1273360E-15   134.5963     -0.2868892E-13
    810   11.641       135.5042       0.000000        127.2      0.1235436E-03  0.2047790E-02 -0.3271756E-17   135.5042     -0.2568425E-13
    811   11.680       136.4151       0.000000        127.4     -0.1232391E-03  0.2064214E-02  0.6813896E-16   136.4151      0.2544479E-13
    812   11.719       137.3291       0.000000        127.5      0.1229357E-03  0.2080875E-02 -0.6071532E-17   137.3291     -0.1455453E-13
    813   11.758       138.2462       0.000000        127.7     -0.1226335E-03  0.2097778E-02  0.5044722E-16   138.2462      0.3073590E-13
    814   11.797       139.1663       0.000000        127.9      0.1223324E-03  0.2114928E-02 -0.2000248E-16   139.1663      0.2001938E-14
    815   11.836       140.0894       0.000000        128.0     -0.1220324E-03  0.2132329E-02 -0.1472476E-15   140.0894      0.4149532E-13
    816   11.875       141.0156       0.000000        128.2      0.1217334E-03  0.2149987E-02  0.5773901E-17   141.0156      0.3930190E-13
    817   11.914       141.9449       0.000000        128.3     -0.1214356E-03  0.2167906E-02 -0.4372827E-15   141.9449     -0.6072467E-14
    818   11.953       142.8772       0.000000        128.5      0.1211389E-03  0.2186092E-02  0.1545093E-16   142.8772     -0.1229572E-13
    819   11.992       143.8126       0.000000        128.6     -0.1208433E-03  0.2204548E-02 -0.1494031E-15   143.8126      0.1175462E-13
    820   12.031       144.7510       0.000000        128.8      0.1205487E-03  0.2223282E-02 -0.2263220E-16   144.7510      0.9554723E-14
    821   12.070       145.6924       0.000000        129.0     -0.1202552E-03  0.2242298E-02 -0.9679582E-16   145.6924      0.2260011E-13
    822   12.109       146.6370       0.000000        129.1      0.1199628E-03  0.2261601E-02  0.4932072E-17   146.6370     -0.1913393E-13
    823   12.148       147.5845       0.000000        129.3     -0.1196715E-03  0.2281198E-02  0.3131812E-15   147.5845     -0.3386180E-14
    824   12.188       148.5352       0.000000        129.4      0.1193812E-03  0.2301094E-02  0.1366095E-16   148.5352     -0.2667638E-13
    825   12.227       149.4888       0.000000        129.6     -0.1190919E-03  0.2321296E-02  0.2824451E-15   149.4888      0.5722166E-13
    826   12.266       150.4456       0.000000        129.7      0.1188037E-03  0.2341809E-02  0.5529431E-16   150.4456      0.1128945E-13
    827   12.305       151.4053       0.000000        129.9     -0.1185166E-03  0.2362640E-02 -0.1396452E-15   151.4053      0.3968340E-13
    828   12.344       152.3682       0.000000        130.1      0.1182305E-03  0.2383795E-02 -0.6093635E-16   152.3682     -0.1188646E-13
    829   12.383       153.3340       0.000000        130.2     -0.1179454E-03  0.2405281E-02  0.2797242E-16   153.3340      0.8368038E-14
    830   12.422       154.3030       0.000000        130.4      0.1176614E-03  0.2427105E-02 -0.3734160E-15   154.3030      0.3538836E-14
    831   12.461       155.2750       0.000000        130.5     -0.1173784E-03  0.2449273E-02  0.2185752E-15   155.2750     -0.2844947E-13
    832   12.500       156.2500       0.000000        130.7      0.1170964E-03  0.2471793E-02   0.000000       156.2500      0.1096292E-13
    833   12.539       157.2281       0.000000        130.8     -0.1168154E-03  0.2494673E-02  0.3260171E-15   157.2281     -0.5038174E-14
    834   12.578       158.2092       0.000000        131.0      0.1165355E-03  0.2517919E-02 -0.1943066E-16   158.2092     -0.9950106E-14
    835   12.617       159.1934       0.000000        131.2     -0.1162565E-03  0.2541540E-02  0.4998382E-16   159.1934      0.1762747E-14
    836   12.656       160.1807       0.000000        131.3      0.1159786E-03  0.2565543E-02 -0.8943601E-16   160.1807     -0.3930136E-13
    837   12.695       161.1710       0.000000        131.5     -0.1157016E-03  0.2589937E-02  0.8136898E-17   161.1710      0.3427867E-13
    838   12.734       162.1643       0.000000        131.6      0.1154256E-03  0.2614730E-02  0.5779755E-16   162.1643      0.1017215E-13
    839   12.773       163.1607       0.000000        131.8     -0.1151506E-03  0.2639930E-02 -0.1080861E-15   163.1607      0.2377238E-13
    840   12.812       164.1602       0.000000        131.9      0.1148766E-03  0.2665547E-02  0.1362684E-17   164.1602     -0.4520022E-13
    841   12.852       165.1627       0.000000        132.1     -0.1146036E-03  0.2691590E-02 -0.2228331E-16   165.1627      0.1651725E-14
    842   12.891       166.1682       0.000000        132.3      0.1143315E-03  0.2718067E-02  0.5909950E-17   166.1682     -0.2479934E-13
    843   12.930       167.1768       0.000000        132.4     -0.1140605E-03  0.2744990E-02 -0.1990340E-15   167.1768      0.2999017E-13
    844   12.969       168.1885       0.000000        132.6      0.1137903E-03  0.2772366E-02 -0.7793489E-17   168.1885     -0.1575129E-13
    845   13.008       169.2032       0.000000        132.7     -0.1135212E-03  0.2800207E-02 -0.1354264E-15   169.2032      0.4601207E-13
    846   13.047       170.2209       0.000000        132.9      0.1132529E-03  0.2828523E-02 -0.1129610E-15   170.2209     -0.4322931E-13
    847   13.086       171.2418       0.000000        133.0     -0.1129857E-03  0.2857325E-02 -0.4956577E-15   171.2418      0.9289775E-14
    848   13.125       172.2656       0.000000        133.2      0.1127194E-03  0.2886624E-02  0.4157172E-17   172.2656     -0.1923515E-13
    849   13.164       173.2925       0.000000        133.4     -0.1124540E-03  0.2916431E-02 -0.8793081E-15   173.2925     -0.8420285E-14
    850   13.203       174.3225       0.000000        133.5      0.1121895E-03  0.2946758E-02 -0.3435106E-16   174.3225     -0.4495042E-13
    851   13.242       175.3555       0.000000        133.7     -0.1119260E-03  0.2977616E-02  0.7300720E-16   175.3555      0.1274648E-13
    852   13.281       176.3916       0.000000        133.8      0.1116635E-03  0.3009019E-02 -0.2865905E-16   176.3916      0.8230602E-14
    853   13.320       177.4307       0.000000        134.0     -0.1114018E-03  0.3040979E-02  0.8870689E-16   177.4307      0.1898535E-13
    854   13.359       178.4729       0.000000        134.1      0.1111411E-03  0.3073508E-02  0.1934129E-16   178.4729     -0.3829196E-14
    855   13.398       179.5181       0.000000        134.3     -0.1108812E-03  0.3106622E-02  0.2899753E-15   179.5181     -0.2864375E-13
    856   13.438       180.5664       0.000000        134.5      0.1106223E-03  0.3140332E-02  0.7744614E-17   180.5664      0.4482794E-14
    857   13.477       181.6177       0.000000        134.6     -0.1103643E-03  0.3174655E-02  0.4835841E-15   181.6177      0.2726958E-13
    858   13.516       182.6721       0.000000        134.8      0.1101072E-03  0.3209604E-02 -0.1510223E-16   182.6721     -0.1615375E-13
    859   13.555       183.7296       0.000000        134.9     -0.1098510E-03  0.3245195E-02  0.8961036E-16   183.7296      0.2493812E-13
    860   13.594       184.7900       0.000000        135.1      0.1095957E-03  0.3281443E-02  0.6369164E-17   184.7900     -0.2230080E-13
    861   13.633       185.8536       0.000000        135.2     -0.1093412E-03  0.3318365E-02  0.3511199E-15   185.8536      0.7717660E-14
    862   13.672       186.9202       0.000000        135.4      0.1090877E-03  0.3355977E-02 -0.4749225E-16   186.9202     -0.9186559E-14
    863   13.711       187.9898       0.000000        135.6     -0.1088350E-03  0.3394296E-02  0.5541938E-15   187.9898     -0.2335659E-13
    864   13.750       189.0625       0.000000        135.7      0.1085832E-03  0.3433341E-02   0.000000       189.0625      0.8361501E-14
    865   13.789       190.1382       0.000000        135.9     -0.1083323E-03  0.3473129E-02 -0.4284927E-15   190.1382      0.1737145E-13
    866   13.828       191.2170       0.000000        136.0      0.1080823E-03  0.3513679E-02  0.1288076E-15   191.2170     -0.8774030E-14
    867   13.867       192.2989       0.000000        136.2     -0.1078331E-03  0.3555010E-02  0.3967341E-16   192.2989      0.1361057E-13
    868   13.906       193.3838       0.000000        136.3      0.1075848E-03  0.3597144E-02 -0.8250569E-16   193.3838     -0.1444161E-13
    869   13.945       194.4717       0.000000        136.5     -0.1073373E-03  0.3640100E-02 -0.1787615E-15   194.4717     -0.2924677E-14
    870   13.984       195.5627       0.000000        136.7      0.1070907E-03  0.3683899E-02 -0.1804882E-16   195.5627      0.1261301E-13
    871   14.023       196.6568       0.000000        136.8     -0.1068449E-03  0.3728565E-02  0.9741790E-16   196.6568      0.2029096E-13
    872   14.062       197.7539       0.000000        137.0      0.1066000E-03  0.3774119E-02  0.2471343E-16   197.7539     -0.1443290E-13
    873   14.102       198.8541       0.000000        137.1     -0.1063559E-03  0.3820586E-02 -0.1599422E-16   198.8541     -0.2602439E-13
    874   14.141       199.9573       0.000000        137.3      0.1061127E-03  0.3867989E-02  0.5492118E-16   199.9573     -0.2834878E-13
    875   14.180       201.0635       0.000000        137.4     -0.1058703E-03  0.3916354E-02  0.5882959E-16   201.0635      0.3171592E-13
    876   14.219       202.1729       0.000000        137.6      0.1056287E-03  0.3965707E-02 -0.2372278E-16   202.1729     -0.7617271E-14
    877   14.258       203.2852       0.000000        137.8     -0.1053880E-03  0.4016075E-02  0.1294537E-15   203.2852      0.3930366E-13
    878   14.297       204.4006       0.000000        137.9      0.1051480E-03  0.4067486E-02  0.1612908E-16   204.4006     -0.2262270E-13
    879   14.336       205.5191       0.000000        138.1     -0.1049089E-03  0.4119969E-02  0.8545722E-15   205.5191     -0.2047744E-13
    880   14.375       206.6406       0.000000        138.2      0.1046706E-03  0.4173553E-02 -0.7521391E-17   206.6406      0.3330669E-14
    881   14.414       207.7652       0.000000        138.4     -0.1044332E-03  0.4228269E-02  0.8462427E-15   207.7652     -0.1171556E-13
    882   14.453       208.8928       0.000000        138.5      0.1041965E-03  0.4284149E-02  0.5518761E-17   208.8928     -0.7410739E-14
    883   14.492       210.0235       0.000000        138.7     -0.1039606E-03  0.4341227E-02  0.6373356E-17   210.0235     -0.1037365E-13
    884   14.531       211.1572       0.000000        138.9      0.1037255E-03  0.4399537E-02 -0.4995409E-16   211.1572     -0.2952513E-13
    885   14.570       212.2940       0.000000        139.0     -0.1034913E-03  0.4459114E-02  0.9613253E-16   212.2940      0.2782143E-13
    886   14.609       213.4338       0.000000        139.2      0.1032578E-03  0.4519995E-02 -0.2035328E-16   213.4338     -0.3238695E-14
    887   14.648       214.5767       0.000000        139.3     -0.1030251E-03  0.4582218E-02  0.1007839E-15   214.5767     -0.4603779E-13
    888   14.688       215.7227       0.000000        139.5      0.1027932E-03  0.4645823E-02 -0.4987330E-17   215.7227     -0.2049396E-13
    889   14.727       216.8716       0.000000        139.6     -0.1025621E-03  0.4710851E-02 -0.9184272E-18   216.8716      0.2213861E-13
    890   14.766       218.0237       0.000000        139.8      0.1023317E-03  0.4777344E-02  0.1111881E-15   218.0237     -0.8583546E-14
    891   14.805       219.1788       0.000000        140.0     -0.1021021E-03  0.4845347E-02 -0.1192706E-15   219.1788      0.2787694E-13
    892   14.844       220.3369       0.000000        140.1      0.1018733E-03  0.4914906E-02 -0.1082076E-15   220.3369     -0.4355991E-14
    893   14.883       221.4981       0.000000        140.3     -0.1016453E-03  0.4986067E-02 -0.3202985E-15   221.4981     -0.1019664E-13
    894   14.922       222.6624       0.000000        140.4      0.1014180E-03  0.5058882E-02 -0.7070675E-16   222.6624     -0.9603698E-14
    895   14.961       223.8297       0.000000        140.6     -0.1011915E-03  0.5133400E-02 -0.1978953E-14   223.8297     -0.2426871E-13
    896   15.000       225.0000       0.000000        140.7      0.1009658E-03  0.5209676E-02   0.000000       225.0000      0.2943164E-14
    897   15.039       226.1734       0.000000        140.9     -0.1007408E-03  0.5287766E-02 -0.1482087E-14   226.1734     -0.7341350E-14
    898   15.078       227.3499       0.000000        141.1      0.1005165E-03  0.5367726E-02 -0.1289772E-16   227.3499     -0.6384856E-14
    899   15.117       228.5294       0.000000        141.2     -0.1002931E-03  0.5449616E-02  0.5012334E-16   228.5294     -0.3192965E-14
    900   15.156       229.7119       0.000000        141.4      0.1000703E-03  0.5533501E-02 -0.9004340E-16   229.7119     -0.2206890E-13
    901   15.195       230.8975       0.000000        141.5     -0.9984830E-04  0.5619443E-02  0.1909999E-15   230.8975      0.1393437E-13
    902   15.234       232.0862       0.000000        141.7      0.9962703E-04  0.5707512E-02  0.1562747E-16   232.0862      0.6301589E-14
    903   15.273       233.2779       0.000000        141.8     -0.9940649E-04  0.5797777E-02  0.6995274E-16   233.2779      0.1729387E-13
    904   15.312       234.4727       0.000000        142.0      0.9918669E-04  0.5890313E-02 -0.3511538E-16   234.4727     -0.2348336E-13
    905   15.352       235.6705       0.000000        142.2     -0.9896761E-04  0.5985195E-02 -0.1613569E-16   235.6705      0.3913536E-14
    906   15.391       236.8713       0.000000        142.3      0.9874926E-04  0.6082504E-02 -0.3781225E-16   236.8713     -0.2670408E-13
    907   15.430       238.0753       0.000000        142.5     -0.9853163E-04  0.6182323E-02  0.4128338E-16   238.0753      0.2759119E-13
    908   15.469       239.2822       0.000000        142.6      0.9831472E-04  0.6284738E-02 -0.2141272E-16   239.2822     -0.9590625E-14
    909   15.508       240.4922       0.000000        142.8     -0.9809852E-04  0.6389841E-02 -0.3044986E-16   240.4922      0.3870197E-13
    910   15.547       241.7053       0.000000        142.9      0.9788304E-04  0.6497727E-02 -0.4983600E-16   241.7053     -0.2660640E-13
    911   15.586       242.9214       0.000000        143.1     -0.9766827E-04  0.6608493E-02  0.5870555E-15   242.9214      0.8736810E-14
    912   15.625       244.1406       0.000000        143.3      0.9745420E-04  0.6722243E-02 -0.4494652E-17   244.1406     -0.7105427E-14
    913   15.664       245.3629       0.000000        143.4     -0.9724084E-04  0.6839086E-02  0.3928994E-15   245.3629     -0.5851553E-14
    914   15.703       246.5881       0.000000        143.6      0.9702817E-04  0.6959134E-02  0.5822375E-16   246.5881     -0.2514923E-13
    915   15.742       247.8165       0.000000        143.7     -0.9681620E-04  0.7082505E-02  0.7846387E-16   247.8165     -0.1019377E-13
    916   15.781       249.0479       0.000000        143.9      0.9660493E-04  0.7209323E-02  0.9265141E-17   249.0479     -0.1325543E-13
    917   15.820       250.2823       0.000000        144.0     -0.9639435E-04  0.7339717E-02 -0.3298090E-16   250.2823      0.1793171E-13
    918   15.859       251.5198       0.000000        144.2      0.9618445E-04  0.7473823E-02  0.2115042E-16   251.5198      0.9426162E-15
    919   15.898       252.7603       0.000000        144.4     -0.9597524E-04  0.7611783E-02 -0.3929198E-15   252.7603     -0.3303236E-13
    920   15.938       254.0039       0.000000        144.5      0.9576671E-04  0.7753746E-02  0.1142452E-16   254.0039      0.3886317E-14
    921   15.977       255.2505       0.000000        144.7     -0.9555886E-04  0.7899868E-02 -0.6596392E-17   255.2505      0.9632258E-14
    922   16.016       256.5002       0.000000        144.8      0.9535169E-04  0.8050313E-02  0.9217815E-17   256.5002      0.2775558E-15
    923   16.055       257.7530       0.000000        145.0     -0.9514519E-04  0.8205253E-02  0.6048991E-16   257.7530      0.3006251E-13
    924   16.094       259.0088       0.000000        145.1      0.9493936E-04  0.8364868E-02  0.7590692E-16   259.0088     -0.6666705E-15
    925   16.133       260.2676       0.000000        145.3     -0.9473420E-04  0.8529348E-02  0.3294355E-15   260.2676     -0.3332279E-14
    926   16.172       261.5295       0.000000        145.5      0.9452970E-04  0.8698893E-02 -0.6671902E-16   261.5295     -0.8716324E-14
    927   16.211       262.7945       0.000000        145.6     -0.9432586E-04  0.8873713E-02  0.4508238E-15   262.7945     -0.1859785E-13
    928   16.250       264.0625       0.000000        145.8      0.9412268E-04  0.9054028E-02   0.000000       264.0625     -0.1256074E-14
    929   16.289       265.3336       0.000000        145.9     -0.9392016E-04  0.9240072E-02  0.1008535E-14   265.3336     -0.1504706E-13
    930   16.328       266.6077       0.000000        146.1      0.9371829E-04  0.9432089E-02 -0.2797774E-17   266.6077      0.2924677E-14
    931   16.367       267.8848       0.000000        146.2     -0.9351707E-04  0.9630337E-02 -0.9747816E-16   267.8848      0.6557926E-15
    932   16.406       269.1650       0.000000        146.4      0.9331649E-04  0.9835088E-02 -0.1388884E-15   269.1650     -0.2227358E-13
    933   16.445       270.4483       0.000000        146.6     -0.9311657E-04  0.1004663E-01 -0.1740973E-15   270.4483      0.2924677E-14
    934   16.484       271.7346       0.000000        146.7      0.9291728E-04  0.1026527E-01 -0.6662318E-16   271.7346      0.4152995E-14
    935   16.523       273.0240       0.000000        146.9     -0.9271863E-04  0.1049132E-01 -0.2453022E-16   273.0240      0.2356122E-13
    936   16.562       274.3164       0.000000        147.0      0.9252062E-04  0.1072513E-01 -0.1046998E-16   274.3164     -0.2819966E-13
    937   16.602       275.6119       0.000000        147.2     -0.9232324E-04  0.1096705E-01 -0.1409970E-15   275.6119     -0.9669282E-14
    938   16.641       276.9104       0.000000        147.3      0.9212650E-04  0.1121746E-01  0.7472068E-16   276.9104     -0.2161125E-13
    939   16.680       278.2120       0.000000        147.5     -0.9193038E-04  0.1147676E-01  0.2057305E-15   278.2120      0.2262787E-13
    940   16.719       279.5166       0.000000        147.7      0.9173489E-04  0.1174539E-01 -0.2786400E-16   279.5166      0.1648189E-14
    941   16.758       280.8243       0.000000        147.8     -0.9154002E-04  0.1202379E-01  0.2827281E-15   280.8243      0.3836161E-13
    942   16.797       282.1350       0.000000        148.0      0.9134577E-04  0.1231243E-01 -0.6564949E-16   282.1350     -0.2945220E-13
    943   16.836       283.4488       0.000000        148.1     -0.9115214E-04  0.1261184E-01  0.3888620E-15   283.4488      0.8480330E-14
    944   16.875       284.7656       0.000000        148.3      0.9095912E-04  0.1292255E-01 -0.6424422E-17   284.7656      0.1443290E-13
    945   16.914       286.0855       0.000000        148.4     -0.9076672E-04  0.1324514E-01  0.5490639E-15   286.0855     -0.8369106E-14
    946   16.953       287.4084       0.000000        148.6      0.9057492E-04  0.1358022E-01 -0.8917668E-16   287.4084     -0.3413936E-14
    947   16.992       288.7344       0.000000        148.8     -0.9038373E-04  0.1392844E-01 -0.1990595E-15   288.7344     -0.8521096E-14
    948   17.031       290.0635       0.000000        148.9      0.9019315E-04  0.1429051E-01  0.2976315E-18   290.0635     -0.2143984E-14
    949   17.070       291.3956       0.000000        149.1     -0.9000317E-04  0.1466715E-01 -0.1289351E-15   291.3956      0.1475889E-13
    950   17.109       292.7307       0.000000        149.2      0.8981379E-04  0.1505917E-01  0.7746729E-16   292.7307      0.8031703E-14
    951   17.148       294.0689       0.000000        149.4     -0.8962501E-04  0.1546742E-01  0.1029356E-15   294.0689     -0.2825518E-13
    952   17.188       295.4102       0.000000        149.5      0.8943682E-04  0.1589280E-01 -0.2992398E-16   295.4102     -0.1623374E-13
    953   17.227       296.7545       0.000000        149.7     -0.8924922E-04  0.1633628E-01  0.1913512E-15   296.7545      0.3464930E-13
    954   17.266       298.1018       0.000000        149.9      0.8906222E-04  0.1679891E-01  0.7025630E-16   298.1018      0.8472524E-14
    955   17.305       299.4522       0.000000        150.0     -0.8887579E-04  0.1728180E-01  0.7242471E-16   299.4522      0.2443198E-13
    956   17.344       300.8057       0.000000        150.2      0.8868996E-04  0.1778616E-01  0.5226274E-16   300.8057      0.6612900E-14
    957   17.383       302.1622       0.000000        150.3     -0.8850471E-04  0.1831327E-01  0.2270319E-15   302.1622     -0.4371235E-14
    958   17.422       303.5217       0.000000        150.5      0.8832003E-04  0.1886453E-01 -0.2831768E-15   303.5217      0.8867906E-14
    959   17.461       304.8843       0.000000        150.6     -0.8813594E-04  0.1944142E-01 -0.2400640E-14   304.8843     -0.1423861E-13
    960   17.500       306.2500       0.000000        150.8      0.8795242E-04  0.2004558E-01   0.000000       306.2500      0.3857488E-14
    961   17.539       307.6187       0.000000        151.0     -0.8776947E-04  0.2067874E-01 -0.3993092E-15   307.6187     -0.5038174E-14
    962   17.578       308.9905       0.000000        151.1      0.8758709E-04  0.2134278E-01  0.2217428E-15   308.9905      0.7080355E-15
    963   17.617       310.3653       0.000000        151.3     -0.8740528E-04  0.2203975E-01  0.1506831E-16   310.3653      0.1457973E-14
    964   17.656       311.7432       0.000000        151.4      0.8722404E-04  0.2277186E-01  0.1495008E-15   311.7432     -0.7326935E-14
    965   17.695       313.1241       0.000000        151.6     -0.8704335E-04  0.2354152E-01 -0.1222117E-15   313.1241     -0.9436896E-15
    966   17.734       314.5081       0.000000        151.7      0.8686323E-04  0.2435134E-01 -0.3583249E-17   314.5081     -0.4859909E-15
    967   17.773       315.8951       0.000000        151.9     -0.8668367E-04  0.2520415E-01  0.9710867E-16   315.8951      0.9561527E-14
    968   17.812       317.2852       0.000000        152.1      0.8650466E-04  0.2610306E-01  0.2910549E-16   317.2852     -0.9673086E-14
    969   17.852       318.6783       0.000000        152.2     -0.8632621E-04  0.2705145E-01  0.5756338E-16   318.6783      0.1131442E-14
    970   17.891       320.0745       0.000000        152.4      0.8614831E-04  0.2805302E-01  0.5023941E-16   320.0745     -0.1717363E-13
    971   17.930       321.4737       0.000000        152.5     -0.8597096E-04  0.2911182E-01  0.1502628E-16   321.4737      0.2028333E-13
    972   17.969       322.8760       0.000000        152.7      0.8579416E-04  0.3023229E-01 -0.4159506E-16   322.8760      0.5564993E-14
    973   18.008       324.2813       0.000000        152.8     -0.8561790E-04  0.3141933E-01 -0.3995061E-16   324.2813      0.2876879E-13
    974   18.047       325.6897       0.000000        153.0      0.8544218E-04  0.3267829E-01 -0.4429873E-16   325.6897     -0.1658396E-13
    975   18.086       327.1011       0.000000        153.2     -0.8526701E-04  0.3401513E-01  0.5365611E-15   327.1011      0.9282736E-15
    976   18.125       328.5156       0.000000        153.3      0.8509237E-04  0.3543639E-01 -0.8060300E-17   328.5156      0.2081131E-14
    977   18.164       329.9332       0.000000        153.5     -0.8491827E-04  0.3694933E-01  0.5615249E-15   329.9332     -0.6643929E-14
    978   18.203       331.3538       0.000000        153.6      0.8474470E-04  0.3856202E-01 -0.2982933E-16   331.3538     -0.2102351E-14
    979   18.242       332.7774       0.000000        153.8     -0.8457166E-04  0.4028341E-01  0.7594522E-16   332.7774     -0.1034616E-13
    980   18.281       334.2041       0.000000        153.9      0.8439915E-04  0.4212350E-01 -0.1727283E-16   334.2041     -0.2668699E-13
    981   18.320       335.6339       0.000000        154.1     -0.8422717E-04  0.4409346E-01  0.1311055E-15   335.6339      0.1751377E-13
    982   18.359       337.0667       0.000000        154.3      0.8405572E-04  0.4620581E-01 -0.5272195E-16   337.0667      0.3581006E-14
    983   18.398       338.5025       0.000000        154.4     -0.8388479E-04  0.4847460E-01 -0.3639644E-15   338.5025     -0.2530655E-13
    984   18.438       339.9414       0.000000        154.6      0.8371438E-04  0.5091567E-01  0.1089090E-16   339.9414      0.6563925E-14
    985   18.477       341.3834       0.000000        154.7     -0.8354448E-04  0.5354692E-01 -0.3404946E-15   341.3834      0.8397403E-15
    986   18.516       342.8284       0.000000        154.9      0.8337511E-04  0.5638863E-01  0.5288353E-16   342.8284      0.7674685E-14
    987   18.555       344.2764       0.000000        155.0     -0.8320625E-04  0.5946384E-01 -0.3729655E-16   344.2764      0.1627184E-13
    988   18.594       345.7275       0.000000        155.2      0.8303790E-04  0.6279888E-01  0.5375090E-16   345.7275      0.1331560E-13
    989   18.633       347.1817       0.000000        155.4     -0.8287006E-04  0.6642384E-01  0.3333398E-16   347.1817     -0.2067790E-13
    990   18.672       348.6389       0.000000        155.5      0.8270273E-04  0.7037333E-01  0.6525639E-16   348.6389     -0.3552714E-14
    991   18.711       350.0992       0.000000        155.7     -0.8253591E-04  0.7468729E-01 -0.2740192E-15   350.0992      0.1512411E-14
    992   18.750       351.5625       0.000000        155.8      0.8236959E-04  0.7941198E-01   0.000000       351.5625     -0.3678955E-15
    993   18.789       353.0289       0.000000        156.0     -0.8220377E-04  0.8460123E-01  0.9111795E-15   353.0289     -0.1800576E-14
    994   18.828       354.4983       0.000000        156.1      0.8203845E-04  0.9031802E-01  0.5169432E-15   354.4983      0.3444960E-14
    995   18.867       355.9708       0.000000        156.3     -0.8187364E-04  0.9663634E-01  0.3348100E-15   355.9708     -0.4673278E-14
    996   18.906       357.4463       0.000000        156.5      0.8170931E-04  0.1036437     -0.1219748E-15   357.4463     -0.4931785E-14
    997   18.945       358.9249       0.000000        156.6     -0.8154549E-04  0.1114439     -0.9142168E-16   358.9249     -0.4180751E-14
    998   18.984       360.4065       0.000000        156.8      0.8138215E-04  0.1201614     -0.1144407E-15   360.4065      0.5095051E-14
    999   19.023       361.8912       0.000000        156.9     -0.8121930E-04  0.1299457     -0.1269082E-15   361.8912      0.8587887E-15
   1000   19.062       363.3789       0.000000        157.1      0.8105695E-04  0.1409785      0.1973886E-16   363.3789     -0.5551115E-14
   1001   19.102       364.8697       0.000000        157.2     -0.8089508E-04  0.1534813     -0.4801367E-15   364.8697     -0.1144564E-13
   1002   19.141       366.3635       0.000000        157.4      0.8073369E-04  0.1677276     -0.7096737E-16   366.3635     -0.1184129E-13
   1003   19.180       367.8604       0.000000        157.6     -0.8057279E-04  0.1840571      0.5788857E-17   367.8604      0.2346217E-13
   1004   19.219       369.3604       0.000000        157.7      0.8041236E-04  0.2028969     -0.7233753E-16   369.3604      0.4924981E-14
   1005   19.258       370.8633       0.000000        157.9     -0.8025242E-04  0.2247890      0.3499805E-15   370.8633      0.2801749E-13
   1006   19.297       372.3694       0.000000        158.0      0.8009295E-04  0.2504302     -0.6101505E-16   372.3694     -0.2481158E-13
   1007   19.336       373.8785       0.000000        158.2     -0.7993395E-04  0.2807283      0.1685985E-14   373.8785     -0.1045272E-14
   1008   19.375       375.3906       0.000000        158.3      0.7977543E-04  0.3168831     -0.7657440E-17   375.3906      0.9547918E-14
   1009   19.414       376.9058       0.000000        158.5     -0.7961738E-04  0.3605075      0.1865889E-14   376.9058     -0.4502374E-14
   1010   19.453       378.4241       0.000000        158.7      0.7945980E-04  0.4138103     -0.1505850E-15   378.4241      0.6800116E-14
   1011   19.492       379.9454       0.000000        158.8     -0.7930269E-04  0.4798813      0.3490281E-15   379.9454     -0.1126182E-13
   1012   19.531       381.4697       0.000000        159.0      0.7914604E-04  0.5631498     -0.3396316E-16   381.4697     -0.2079573E-13
   1013   19.570       382.9971       0.000000        159.1     -0.7898986E-04  0.6701465      0.5283685E-16   382.9971      0.1397847E-13
   1014   19.609       384.5276       0.000000        159.3      0.7883414E-04  0.8108238     -0.2170870E-15   384.5276      0.7679587E-14
   1015   19.648       386.0611       0.000000        159.4     -0.7867888E-04   1.000957     -0.3020119E-15   386.0611     -0.2712590E-13
   1016   19.688       387.5977       0.000000        159.6      0.7852407E-04   1.266769     -0.4163336E-16   387.5977     -0.4337480E-15
   1017   19.727       389.1373       0.000000        159.7     -0.7836973E-04   1.654478      0.2954136E-16   389.1373      0.3118966E-14
   1018   19.766       390.6799       0.000000        159.9      0.7821583E-04   2.251836     -0.1556145E-16   390.6799      0.2810386E-14
   1019   19.805       392.2256       0.000000        160.1     -0.7806240E-04   3.242532     -0.4419124E-15   392.2256      0.1136944E-13
   1020   19.844       393.7744       0.000000        160.2      0.7790941E-04   5.066314      0.1088395E-17   393.7744      0.9962618E-14
   1021   19.883       395.3262       0.000000        160.4     -0.7775687E-04   9.006582      0.1106138E-15   395.3262     -0.3454535E-13
   1022   19.922       396.8811       0.000000        160.5      0.7760478E-04   20.26449      0.2125204E-15   396.8811      0.4302383E-14
   1023   19.961       398.4390       0.000000        160.7     -0.7745313E-04   81.05720      0.1571727E-14   398.4390     -0.7761220E-14
